# N = 400
# (S0, I0, R0) = (5, 197.5, 197.5)
# (a, b, c) = (4, 1, 0.5)
# time, S, I, R
0	5	197.5	197.5
0.0025	5.22182	197.032	197.746
0.005	5.44292	196.566	197.991
0.0075	5.66331	196.103	198.234
0.01	5.88298	195.641	198.476
0.0125	6.10195	195.182	198.716
0.015	6.32022	194.725	198.955
0.0175	6.5378	194.27	199.192
0.02	6.7547	193.817	199.428
0.0225	6.97092	193.366	199.663
0.025	7.18646	192.918	199.896
0.0275	7.40134	192.471	200.128
0.03	7.61555	192.027	200.358
0.0325	7.82911	191.584	200.587
0.035	8.04202	191.144	200.814
0.0375	8.25429	190.705	201.041
0.04	8.46592	190.269	201.265
0.0425	8.67692	189.834	201.489
0.045	8.88728	189.402	201.711
0.0475	9.09703	188.972	201.931
0.05	9.30616	188.543	202.151
0.0525	9.51468	188.117	202.369
0.055	9.72259	187.692	202.585
0.0575	9.9299	187.269	202.801
0.06	10.1366	186.849	203.015
0.0625	10.3427	186.43	203.227
0.065	10.5483	186.013	203.439
0.0675	10.7532	185.598	203.649
0.07	10.9576	185.185	203.858
0.0725	11.1614	184.773	204.065
0.075	11.3647	184.364	204.271
0.0775	11.5673	183.956	204.476
0.08	11.7695	183.551	204.68
0.0825	11.971	183.147	204.882
0.085	12.172	182.744	205.084
0.0875	12.3725	182.344	205.283
0.09	12.5724	181.945	205.482
0.0925	12.7718	181.549	205.679
0.095	12.9707	181.154	205.876
0.0975	13.169	180.76	206.071
0.1	13.3669	180.369	206.264
0.1025	13.5642	179.979	206.457
0.105	13.7609	179.591	206.648
0.1075	13.9572	179.205	206.838
0.11	14.153	178.82	207.027
0.1125	14.3482	178.437	207.215
0.115	14.543	178.056	207.401
0.1175	14.7373	177.676	207.586
0.12	14.931	177.298	207.77
0.1225	15.1243	176.922	207.953
0.125	15.3171	176.548	208.135
0.1275	15.5095	176.175	208.316
0.13	15.7013	175.803	208.495
0.1325	15.8927	175.434	208.674
0.135	16.0836	175.066	208.851
0.1375	16.274	174.699	209.027
0.14	16.464	174.334	209.202
0.1425	16.6535	173.971	209.375
0.145	16.8426	173.609	209.548
0.1475	17.0312	173.249	209.72
0.15	17.2194	172.891	209.89
0.1525	17.4071	172.534	210.059
0.155	17.5943	172.178	210.228
0.1575	17.7812	171.824	210.395
0.16	17.9676	171.472	210.561
0.1625	18.1535	171.121	210.726
0.165	18.3391	170.771	210.89
0.1675	18.5242	170.424	211.052
0.17	18.7088	170.077	211.214
0.1725	18.8931	169.732	211.375
0.175	19.0769	169.389	211.534
0.1775	19.2604	169.047	211.693
0.18	19.4434	168.706	211.85
0.1825	19.626	168.367	212.007
0.185	19.8082	168.03	212.162
0.1875	19.99	167.694	212.316
0.19	20.1714	167.359	212.47
0.1925	20.3523	167.026	212.622
0.195	20.5329	166.694	212.773
0.1975	20.7131	166.363	212.924
0.2	20.893	166.034	213.073
0.2025	21.0724	165.707	213.221
0.205	21.2514	165.38	213.368
0.2075	21.4301	165.055	213.515
0.21	21.6084	164.732	213.66
0.2125	21.7862	164.41	213.804
0.215	21.9638	164.089	213.947
0.2175	22.1409	163.769	214.09
0.22	22.3177	163.451	214.231
0.2225	22.4941	163.135	214.371
0.225	22.6701	162.819	214.511
0.2275	22.8458	162.505	214.649
0.23	23.0211	162.192	214.787
0.2325	23.1961	161.881	214.923
0.235	23.3707	161.571	215.059
0.2375	23.5449	161.262	215.193
0.24	23.7188	160.954	215.327
0.2425	23.8924	160.648	215.46
0.245	24.0656	160.343	215.592
0.2475	24.2384	160.039	215.723
0.25	24.4109	159.737	215.852
0.2525	24.5831	159.435	215.982
0.255	24.7549	159.135	216.11
0.2575	24.9264	158.837	216.237
0.26	25.0975	158.539	216.363
0.2625	25.2684	158.243	216.489
0.265	25.4388	157.948	216.613
0.2675	25.609	157.654	216.737
0.27	25.7788	157.361	216.86
0.2725	25.9483	157.07	216.982
0.275	26.1175	156.78	217.103
0.2775	26.2863	156.491	217.223
0.28	26.4549	156.203	217.342
0.2825	26.6231	155.917	217.46
0.285	26.791	155.631	217.578
0.2875	26.9585	155.347	217.695
0.29	27.1258	155.064	217.81
0.2925	27.2928	154.782	217.925
0.295	27.4594	154.501	218.04
0.2975	27.6257	154.221	218.153
0.3	27.7918	153.943	218.265
0.3025	27.9575	153.666	218.377
0.305	28.1229	153.389	218.488
0.3075	28.288	153.114	218.598
0.31	28.4528	152.84	218.707
0.3125	28.6173	152.568	218.815
0.315	28.7816	152.296	218.923
0.3175	28.9455	152.025	219.029
0.32	29.1091	151.756	219.135
0.3225	29.2724	151.487	219.24
0.325	29.4355	151.22	219.344
0.3275	29.5982	150.954	219.448
0.33	29.7607	150.689	219.551
0.3325	29.9229	150.425	219.652
0.335	30.0848	150.162	219.754
0.3375	30.2464	149.9	219.854
0.34	30.4077	149.639	219.953
0.3425	30.5688	149.379	220.052
0.345	30.7295	149.12	220.15
0.3475	30.89	148.863	220.247
0.35	31.0502	148.606	220.344
0.3525	31.2102	148.35	220.44
0.355	31.3698	148.096	220.535
0.3575	31.5292	147.842	220.629
0.36	31.6883	147.589	220.722
0.3625	31.8472	147.338	220.815
0.365	32.0058	147.087	220.907
0.3675	32.1641	146.838	220.998
0.37	32.3221	146.589	221.089
0.3725	32.4799	146.342	221.178
0.375	32.6374	146.095	221.267
0.3775	32.7947	145.85	221.356
0.38	32.9516	145.605	221.443
0.3825	33.1084	145.362	221.53
0.385	33.2648	145.119	221.616
0.3875	33.421	144.877	221.702
0.39	33.577	144.637	221.786
0.3925	33.7327	144.397	221.87
0.395	33.8881	144.158	221.954
0.3975	34.0433	143.921	222.036
0.4	34.1982	143.684	222.118
0.4025	34.3529	143.448	222.199
0.405	34.5073	143.213	222.28
0.4075	34.6615	142.979	222.36
0.41	34.8154	142.746	222.439
0.4125	34.9691	142.514	222.517
0.415	35.1226	142.282	222.595
0.4175	35.2757	142.052	222.672
0.42	35.4287	141.823	222.749
0.4225	35.5814	141.594	222.824
0.425	35.7338	141.367	222.9
0.4275	35.8861	141.14	222.974
0.43	36.038	140.914	223.048
0.4325	36.1898	140.689	223.121
0.435	36.3413	140.465	223.193
0.4375	36.4925	140.242	223.265
0.44	36.6435	140.02	223.337
0.4425	36.7943	139.799	223.407
0.445	36.9449	139.578	223.477
0.4475	37.0952	139.359	223.546
0.45	37.2453	139.14	223.615
0.4525	37.3951	138.922	223.683
0.455	37.5447	138.705	223.75
0.4575	37.6941	138.489	223.817
0.46	37.8432	138.274	223.883
0.4625	37.9922	138.059	223.949
0.465	38.1409	137.845	224.014
0.4675	38.2893	137.633	224.078
0.47	38.4376	137.421	224.142
0.4725	38.5856	137.21	224.205
0.475	38.7334	136.999	224.267
0.4775	38.8809	136.79	224.329
0.48	39.0283	136.581	224.39
0.4825	39.1754	136.374	224.451
0.485	39.3223	136.167	224.511
0.4875	39.4689	135.961	224.571
0.49	39.6154	135.755	224.629
0.4925	39.7616	135.551	224.688
0.495	39.9076	135.347	224.745
0.4975	40.0534	135.144	224.803
0.5	40.199	134.942	224.859
0.5025	40.3443	134.741	224.915
0.505	40.4895	134.54	224.971
0.5075	40.6344	134.34	225.025
0.51	40.7791	134.141	225.08
0.5125	40.9236	133.943	225.133
0.515	41.0678	133.746	225.187
0.5175	41.2119	133.549	225.239
0.52	41.3557	133.353	225.291
0.5225	41.4994	133.158	225.343
0.525	41.6428	132.964	225.394
0.5275	41.786	132.77	225.444
0.53	41.929	132.577	225.494
0.5325	42.0718	132.385	225.543
0.535	42.2144	132.194	225.592
0.5375	42.3568	132.003	225.64
0.54	42.4989	131.813	225.688
0.5425	42.6409	131.624	225.735
0.545	42.7826	131.436	225.782
0.5475	42.9242	131.248	225.828
0.55	43.0655	131.061	225.873
0.5525	43.2067	130.875	225.918
0.555	43.3476	130.689	225.963
0.5575	43.4883	130.505	226.007
0.56	43.6288	130.321	226.05
0.5625	43.7692	130.137	226.093
0.565	43.9093	129.955	226.136
0.5675	44.0492	129.773	226.178
0.57	44.1889	129.592	226.219
0.5725	44.3284	129.411	226.26
0.575	44.4677	129.232	226.301
0.5775	44.6068	129.053	226.341
0.58	44.7457	128.874	226.38
0.5825	44.8844	128.696	226.419
0.585	45.023	128.519	226.458
0.5875	45.1613	128.343	226.496
0.59	45.2994	128.168	226.533
0.5925	45.4373	127.993	226.57
0.595	45.575	127.818	226.607
0.5975	45.7126	127.645	226.643
0.6	45.8499	127.472	226.678
0.6025	45.987	127.3	226.713
0.605	46.124	127.128	226.748
0.6075	46.2607	126.957	226.782
0.61	46.3973	126.787	226.816
0.6125	46.5336	126.617	226.849
0.615	46.6698	126.448	226.882
0.6175	46.8058	126.28	226.914
0.62	46.9415	126.113	226.946
0.6225	47.0771	125.946	226.977
0.625	47.2125	125.779	227.008
0.6275	47.3477	125.614	227.039
0.63	47.4828	125.449	227.069
0.6325	47.6176	125.284	227.098
0.635	47.7522	125.121	227.127
0.6375	47.8867	124.957	227.156
0.64	48.0209	124.795	227.184
0.6425	48.155	124.633	227.212
0.645	48.2889	124.472	227.239
0.6475	48.4225	124.311	227.266
0.65	48.556	124.151	227.293
0.6525	48.6894	123.992	227.319
0.655	48.8225	123.833	227.344
0.6575	48.9554	123.675	227.37
0.66	49.0882	123.518	227.394
0.6625	49.2208	123.361	227.419
0.665	49.3531	123.204	227.443
0.6675	49.4853	123.049	227.466
0.67	49.6174	122.894	227.489
0.6725	49.7492	122.739	227.512
0.675	49.8808	122.585	227.534
0.6775	50.0123	122.432	227.556
0.68	50.1436	122.279	227.577
0.6825	50.2746	122.127	227.598
0.685	50.4056	121.975	227.619
0.6875	50.5363	121.825	227.639
0.69	50.6668	121.674	227.659
0.6925	50.7972	121.524	227.678
0.695	50.9274	121.375	227.697
0.6975	51.0574	121.227	227.716
0.7	51.1872	121.079	227.734
0.7025	51.3168	120.931	227.752
0.705	51.4463	120.784	227.77
0.7075	51.5755	120.638	227.787
0.71	51.7046	120.492	227.803
0.7125	51.8336	120.347	227.82
0.715	51.9623	120.202	227.835
0.7175	52.0908	120.058	227.851
0.72	52.2192	119.915	227.866
0.7225	52.3474	119.772	227.881
0.725	52.4754	119.629	227.895
0.7275	52.6033	119.487	227.909
0.73	52.7309	119.346	227.923
0.7325	52.8584	119.205	227.936
0.735	52.9857	119.065	227.949
0.7375	53.1129	118.925	227.962
0.74	53.2398	118.786	227.974
0.7425	53.3666	118.648	227.986
0.745	53.4932	118.51	227.997
0.7475	53.6196	118.372	228.008
0.75	53.7459	118.235	228.019
0.7525	53.8719	118.099	228.029
0.755	53.9978	117.963	228.039
0.7575	54.1235	117.827	228.049
0.76	54.2491	117.693	228.058
0.7625	54.3744	117.558	228.067
0.765	54.4996	117.424	228.076
0.7675	54.6247	117.291	228.084
0.77	54.7495	117.158	228.092
0.7725	54.8742	117.026	228.1
0.775	54.9987	116.894	228.107
0.7775	55.123	116.763	228.114
0.78	55.2471	116.632	228.121
0.7825	55.3711	116.502	228.127
0.785	55.4949	116.372	228.133
0.7875	55.6185	116.243	228.138
0.79	55.742	116.114	228.144
0.7925	55.8653	115.986	228.149
0.795	55.9884	115.858	228.153
0.7975	56.1113	115.731	228.158
0.8	56.2341	115.604	228.162
0.8025	56.3567	115.478	228.165
0.805	56.4791	115.352	228.169
0.8075	56.6013	115.227	228.172
0.81	56.7234	115.102	228.174
0.8125	56.8453	114.978	228.177
0.815	56.9671	114.854	228.179
0.8175	57.0886	114.731	228.18
0.82	57.21	114.608	228.182
0.8225	57.3313	114.486	228.183
0.825	57.4523	114.364	228.184
0.8275	57.5732	114.242	228.184
0.83	57.6939	114.122	228.185
0.8325	57.8144	114.001	228.185
0.835	57.9348	113.881	228.184
0.8375	58.055	113.762	228.183
0.84	58.1751	113.642	228.182
0.8425	58.2949	113.524	228.181
0.845	58.4146	113.406	228.18
0.8475	58.5341	113.288	228.178
0.85	58.6535	113.171	228.176
0.8525	58.7727	113.054	228.173
0.855	58.8917	112.938	228.17
0.8575	59.0106	112.822	228.167
0.86	59.1292	112.707	228.164
0.8625	59.2478	112.592	228.161
0.865	59.3661	112.477	228.157
0.8675	59.4843	112.363	228.153
0.87	59.6023	112.25	228.148
0.8725	59.7201	112.136	228.143
0.875	59.8378	112.024	228.138
0.8775	59.9553	111.911	228.133
0.88	60.0727	111.8	228.128
0.8825	60.1898	111.688	228.122
0.885	60.3068	111.577	228.116
0.8875	60.4237	111.467	228.11
0.89	60.5404	111.357	228.103
0.8925	60.6569	111.247	228.096
0.895	60.7732	111.138	228.089
0.8975	60.8894	111.029	228.082
0.9	61.0054	110.921	228.074
0.9025	61.1212	110.813	228.066
0.905	61.2369	110.705	228.058
0.9075	61.3524	110.598	228.049
0.91	61.4677	110.492	228.041
0.9125	61.5829	110.385	228.032
0.915	61.6979	110.28	228.022
0.9175	61.8128	110.174	228.013
0.92	61.9275	110.069	228.003
0.9225	62.042	109.965	227.993
0.925	62.1563	109.861	227.983
0.9275	62.2705	109.757	227.973
0.93	62.3845	109.653	227.962
0.9325	62.4984	109.551	227.951
0.935	62.6121	109.448	227.94
0.9375	62.7256	109.346	227.928
0.94	62.8389	109.244	227.917
0.9425	62.9521	109.143	227.905
0.945	63.0652	109.042	227.893
0.9475	63.178	108.942	227.88
0.95	63.2907	108.842	227.868
0.9525	63.4033	108.742	227.855
0.955	63.5156	108.643	227.842
0.9575	63.6278	108.544	227.828
0.96	63.7399	108.445	227.815
0.9625	63.8518	108.347	227.801
0.965	63.9635	108.249	227.787
0.9675	64.075	108.152	227.773
0.97	64.1864	108.055	227.759
0.9725	64.2976	107.959	227.744
0.975	64.4087	107.862	227.729
0.9775	64.5196	107.767	227.714
0.98	64.6303	107.671	227.698
0.9825	64.7409	107.576	227.683
0.985	64.8513	107.482	227.667
0.9875	64.9616	107.387	227.651
0.99	65.0716	107.293	227.635
0.9925	65.1816	107.2	227.619
0.995	65.2913	107.107	227.602
0.9975	65.4009	107.014	227.585
1	65.5103	106.922	227.568
1.0025	65.6196	106.83	227.551
1.005	65.7287	106.738	227.533
1.0075	65.8377	106.647	227.516
1.01	65.9464	106.556	227.498
1.0125	66.0551	106.465	227.48
1.015	66.1635	106.375	227.461
1.0175	66.2718	106.285	227.443
1.02	66.3799	106.196	227.424
1.0225	66.4879	106.107	227.405
1.025	66.5957	106.018	227.386
1.0275	66.7033	105.93	227.367
1.03	66.8108	105.842	227.347
1.0325	66.9181	105.754	227.328
1.035	67.0253	105.667	227.308
1.0375	67.1323	105.58	227.288
1.04	67.2391	105.493	227.268
1.0425	67.3458	105.407	227.247
1.045	67.4523	105.321	227.227
1.0475	67.5587	105.236	227.206
1.05	67.6648	105.15	227.185
1.0525	67.7709	105.066	227.163
1.055	67.8767	104.981	227.142
1.0575	67.9824	104.897	227.121
1.06	68.088	104.813	227.099
1.0625	68.1934	104.73	227.077
1.065	68.2986	104.647	227.055
1.0675	68.4036	104.564	227.032
1.07	68.5085	104.482	227.01
1.0725	68.6133	104.399	226.987
1.075	68.7178	104.318	226.964
1.0775	68.8223	104.236	226.941
1.08	68.9265	104.155	226.918
1.0825	69.0306	104.074	226.895
1.085	69.1345	103.994	226.871
1.0875	69.2383	103.914	226.848
1.09	69.3419	103.834	226.824
1.0925	69.4454	103.755	226.8
1.095	69.5486	103.676	226.776
1.0975	69.6518	103.597	226.751
1.1	69.7547	103.518	226.727
1.1025	69.8575	103.44	226.702
1.105	69.9602	103.363	226.677
1.1075	70.0627	103.285	226.652
1.11	70.165	103.208	226.627
1.1125	70.2672	103.131	226.602
1.115	70.3692	103.055	226.576
1.1175	70.471	102.978	226.551
1.12	70.5727	102.903	226.525
1.1225	70.6742	102.827	226.499
1.125	70.7756	102.752	226.473
1.1275	70.8768	102.677	226.446
1.13	70.9778	102.602	226.42
1.1325	71.0787	102.528	226.393
1.135	71.1794	102.454	226.367
1.1375	71.28	102.38	226.34
1.14	71.3804	102.307	226.313
1.1425	71.4806	102.234	226.285
1.145	71.5807	102.161	226.258
1.1475	71.6806	102.089	226.231
1.15	71.7804	102.017	226.203
1.1525	71.88	101.945	226.175
1.155	71.9795	101.873	226.147
1.1575	72.0787	101.802	226.119
1.16	72.1779	101.731	226.091
1.1625	72.2768	101.661	226.063
1.165	72.3756	101.59	226.034
1.1675	72.4743	101.52	226.005
1.17	72.5728	101.451	225.977
1.1725	72.6711	101.381	225.948
1.175	72.7693	101.312	225.919
1.1775	72.8673	101.243	225.889
1.18	72.9651	101.175	225.86
1.1825	73.0628	101.106	225.831
1.185	73.1603	101.039	225.801
1.1875	73.2577	100.971	225.771
1.19	73.3549	100.904	225.742
1.1925	73.452	100.836	225.712
1.195	73.5489	100.77	225.681
1.1975	73.6456	100.703	225.651
1.2	73.7422	100.637	225.621
1.2025	73.8386	100.571	225.59
1.205	73.9349	100.505	225.56
1.2075	74.031	100.44	225.529
1.21	74.1269	100.375	225.498
1.2125	74.2227	100.31	225.467
1.215	74.3183	100.246	225.436
1.2175	74.4138	100.182	225.405
1.22	74.5091	100.118	225.373
1.2225	74.6042	100.054	225.342
1.225	74.6992	99.9905	225.31
1.2275	74.794	99.9274	225.279
1.23	74.8887	99.8646	225.247
1.2325	74.9832	99.802	225.215
1.235	75.0776	99.7398	225.183
1.2375	75.1718	99.6777	225.151
1.24	75.2658	99.616	225.118
1.2425	75.3597	99.5545	225.086
1.245	75.4534	99.4934	225.053
1.2475	75.5469	99.4324	225.021
1.25	75.6403	99.3718	224.988
1.2525	75.7336	99.3114	224.955
1.255	75.8267	99.2513	224.922
1.2575	75.9196	99.1914	224.889
1.26	76.0124	99.1319	224.856
1.2625	76.105	99.0725	224.822
1.265	76.1974	99.0135	224.789
1.2675	76.2897	98.9547	224.756
1.27	76.3819	98.8962	224.722
1.2725	76.4738	98.8379	224.688
1.275	76.5656	98.7799	224.654
1.2775	76.6573	98.7222	224.621
1.28	76.7488	98.6647	224.586
1.2825	76.8402	98.6075	224.552
1.285	76.9313	98.5505	224.518
1.2875	77.0224	98.4938	224.484
1.29	77.1132	98.4374	224.449
1.2925	77.2039	98.3812	224.415
1.295	77.2945	98.3252	224.38
1.2975	77.3849	98.2695	224.346
1.3	77.4751	98.2141	224.311
1.3025	77.5652	98.1589	224.276
1.305	77.6551	98.104	224.241
1.3075	77.7449	98.0493	224.206
1.31	77.8345	97.9949	224.171
1.3125	77.924	97.9407	224.135
1.315	78.0133	97.8868	224.1
1.3175	78.1024	97.8331	224.065
1.32	78.1914	97.7797	224.029
1.3225	78.2802	97.7265	223.993
1.325	78.3688	97.6735	223.958
1.3275	78.4574	97.6208	223.922
1.33	78.5457	97.5684	223.886
1.3325	78.6339	97.5162	223.85
1.335	78.7219	97.4642	223.814
1.3375	78.8098	97.4125	223.778
1.34	78.8975	97.361	223.741
1.3425	78.9851	97.3097	223.705
1.345	79.0725	97.2587	223.669
1.3475	79.1597	97.208	223.632
1.35	79.2468	97.1575	223.596
1.3525	79.3337	97.1072	223.559
1.355	79.4205	97.0571	223.522
1.3575	79.5071	97.0073	223.486
1.36	79.5936	96.9577	223.449
1.3625	79.6799	96.9084	223.412
1.365	79.766	96.8593	223.375
1.3675	79.852	96.8104	223.338
1.37	79.9379	96.7617	223.3
1.3725	80.0235	96.7133	223.263
1.375	80.109	96.6651	223.226
1.3775	80.1944	96.6172	223.188
1.38	80.2796	96.5694	223.151
1.3825	80.3647	96.522	223.113
1.385	80.4495	96.4747	223.076
1.3875	80.5343	96.4276	223.038
1.39	80.6189	96.3808	223
1.3925	80.7033	96.3342	222.962
1.395	80.7875	96.2879	222.925
1.3975	80.8716	96.2418	222.887
1.4	80.9556	96.1958	222.849
1.4025	81.0394	96.1502	222.81
1.405	81.123	96.1047	222.772
1.4075	81.2065	96.0594	222.734
1.41	81.2898	96.0144	222.696
1.4125	81.373	95.9696	222.657
1.415	81.456	95.925	222.619
1.4175	81.5389	95.8807	222.58
1.42	81.6215	95.8365	222.542
1.4225	81.7041	95.7926	222.503
1.425	81.7865	95.7489	222.465
1.4275	81.8687	95.7054	222.426
1.43	81.9508	95.6621	222.387
1.4325	82.0327	95.6191	222.348
1.435	82.1145	95.5762	222.309
1.4375	82.1961	95.5336	222.27
1.44	82.2775	95.4912	222.231
1.4425	82.3588	95.449	222.192
1.445	82.4399	95.407	222.153
1.4475	82.5209	95.3652	222.114
1.45	82.6017	95.3237	222.075
1.4525	82.6824	95.2823	222.035
1.455	82.7629	95.2412	221.996
1.4575	82.8433	95.2002	221.957
1.46	82.9235	95.1595	221.917
1.4625	83.0035	95.119	221.878
1.465	83.0834	95.0787	221.838
1.4675	83.1631	95.0386	221.798
1.47	83.2427	94.9987	221.759
1.4725	83.3221	94.959	221.719
1.475	83.4014	94.9195	221.679
1.4775	83.4805	94.8802	221.639
1.48	83.5595	94.8411	221.599
1.4825	83.6383	94.8022	221.56
1.485	83.7169	94.7635	221.52
1.4875	83.7954	94.7251	221.48
1.49	83.8737	94.6868	221.439
1.4925	83.9519	94.6487	221.399
1.495	84.0299	94.6108	221.359
1.4975	84.1078	94.5732	221.319
1.5	84.1855	94.5357	221.279
1.5025	84.2631	94.4984	221.239
1.505	84.3405	94.4613	221.198
1.5075	84.4177	94.4245	221.158
1.51	84.4948	94.3878	221.117
1.5125	84.5718	94.3513	221.077
1.515	84.6485	94.315	221.036
1.5175	84.7252	94.2789	220.996
1.52	84.8016	94.243	220.955
1.5225	84.878	94.2073	220.915
1.525	84.9541	94.1718	220.874
1.5275	85.0301	94.1364	220.833
1.53	85.106	94.1013	220.793
1.5325	85.1817	94.0664	220.752
1.535	85.2572	94.0316	220.711
1.5375	85.3326	93.997	220.67
1.54	85.4078	93.9627	220.629
1.5425	85.4829	93.9285	220.589
1.545	85.5579	93.8945	220.548
1.5475	85.6326	93.8607	220.507
1.55	85.7072	93.8271	220.466
1.5525	85.7817	93.7936	220.425
1.555	85.856	93.7604	220.384
1.5575	85.9302	93.7273	220.343
1.56	86.0042	93.6944	220.301
1.5625	86.078	93.6618	220.26
1.565	86.1517	93.6292	220.219
1.5675	86.2253	93.5969	220.178
1.57	86.2986	93.5648	220.137
1.5725	86.3719	93.5328	220.095
1.575	86.4449	93.501	220.054
1.5775	86.5179	93.4695	220.013
1.58	86.5906	93.438	219.971
1.5825	86.6633	93.4068	219.93
1.585	86.7357	93.3758	219.889
1.5875	86.808	93.3449	219.847
1.59	86.8802	93.3142	219.806
1.5925	86.9522	93.2837	219.764
1.595	87.024	93.2533	219.723
1.5975	87.0957	93.2232	219.681
1.6	87.1673	93.1932	219.64
1.6025	87.2387	93.1634	219.598
1.605	87.3099	93.1337	219.556
1.6075	87.381	93.1043	219.515
1.61	87.4519	93.075	219.473
1.6125	87.5227	93.0459	219.431
1.615	87.5933	93.0169	219.39
1.6175	87.6638	92.9882	219.348
1.62	87.7341	92.9596	219.306
1.6225	87.8042	92.9312	219.265
1.625	87.8743	92.9029	219.223
1.6275	87.9441	92.8748	219.181
1.63	88.0138	92.8469	219.139
1.6325	88.0834	92.8192	219.097
1.635	88.1528	92.7916	219.056
1.6375	88.222	92.7642	219.014
1.64	88.2911	92.737	218.972
1.6425	88.3601	92.7099	218.93
1.645	88.4288	92.683	218.888
1.6475	88.4975	92.6563	218.846
1.65	88.566	92.6297	218.804
1.6525	88.6343	92.6034	218.762
1.655	88.7025	92.5771	218.72
1.6575	88.7705	92.5511	218.678
1.66	88.8384	92.5252	218.636
1.6625	88.9061	92.4994	218.594
1.665	88.9737	92.4739	218.552
1.6675	89.0411	92.4484	218.51
1.67	89.1084	92.4232	218.468
1.6725	89.1755	92.3981	218.426
1.675	89.2425	92.3732	218.384
1.6775	89.3093	92.3484	218.342
1.68	89.3759	92.3238	218.3
1.6825	89.4424	92.2994	218.258
1.685	89.5088	92.2751	218.216
1.6875	89.575	92.251	218.174
1.69	89.6411	92.227	218.132
1.6925	89.707	92.2032	218.09
1.695	89.7727	92.1796	218.048
1.6975	89.8383	92.1561	218.006
1.7	89.9038	92.1327	217.963
1.7025	89.9691	92.1096	217.921
1.705	90.0342	92.0865	217.879
1.7075	90.0992	92.0637	217.837
1.71	90.1641	92.041	217.795
1.7125	90.2288	92.0184	217.753
1.715	90.2933	91.996	217.711
1.7175	90.3577	91.9738	217.669
1.72	90.422	91.9517	217.626
1.7225	90.4861	91.9297	217.584
1.725	90.55	91.9079	217.542
1.7275	90.6138	91.8863	217.5
1.73	90.6775	91.8648	217.458
1.7325	90.741	91.8435	217.416
1.735	90.8043	91.8223	217.373
1.7375	90.8675	91.8013	217.331
1.74	90.9305	91.7804	217.289
1.7425	90.9934	91.7596	217.247
1.745	91.0562	91.7391	217.205
1.7475	91.1188	91.7186	217.163
1.75	91.1812	91.6983	217.12
1.7525	91.2435	91.6782	217.078
1.755	91.3057	91.6582	217.036
1.7575	91.3677	91.6383	216.994
1.76	91.4295	91.6186	216.952
1.7625	91.4912	91.5991	216.91
1.765	91.5528	91.5797	216.868
1.7675	91.6142	91.5604	216.825
1.77	91.6754	91.5413	216.783
1.7725	91.7365	91.5223	216.741
1.775	91.7975	91.5035	216.699
1.7775	91.8583	91.4848	216.657
1.78	91.9189	91.4662	216.615
1.7825	91.9794	91.4478	216.573
1.785	92.0398	91.4295	216.531
1.7875	92.1	91.4114	216.489
1.79	92.1601	91.3934	216.446
1.7925	92.22	91.3756	216.404
1.795	92.2798	91.3579	216.362
1.7975	92.3394	91.3403	216.32
1.8	92.3988	91.3229	216.278
1.8025	92.4582	91.3056	216.236
1.805	92.5173	91.2885	216.194
1.8075	92.5764	91.2715	216.152
1.81	92.6352	91.2546	216.11
1.8125	92.694	91.2379	216.068
1.815	92.7525	91.2213	216.026
1.8175	92.811	91.2048	215.984
1.82	92.8693	91.1885	215.942
1.8225	92.9274	91.1723	215.9
1.825	92.9854	91.1562	215.858
1.8275	93.0432	91.1403	215.816
1.83	93.1009	91.1245	215.775
1.8325	93.1585	91.1089	215.733
1.835	93.2159	91.0934	215.691
1.8375	93.2731	91.078	215.649
1.84	93.3303	91.0627	215.607
1.8425	93.3872	91.0476	215.565
1.845	93.444	91.0326	215.523
1.8475	93.5007	91.0178	215.482
1.85	93.5572	91.0031	215.44
1.8525	93.6136	90.9885	215.398
1.855	93.6698	90.974	215.356
1.8575	93.7259	90.9597	215.314
1.86	93.7819	90.9455	215.273
1.8625	93.8376	90.9314	215.231
1.865	93.8933	90.9175	215.189
1.8675	93.9488	90.9036	215.148
1.87	94.0041	90.8899	215.106
1.8725	94.0594	90.8764	215.064
1.875	94.1144	90.863	215.023
1.8775	94.1693	90.8496	214.981
1.88	94.2241	90.8365	214.939
1.8825	94.2787	90.8234	214.898
1.885	94.3332	90.8105	214.856
1.8875	94.3876	90.7977	214.815
1.89	94.4417	90.785	214.773
1.8925	94.4958	90.7725	214.732
1.895	94.5497	90.76	214.69
1.8975	94.6035	90.7477	214.649
1.9	94.6571	90.7355	214.607
1.9025	94.7105	90.7235	214.566
1.905	94.7639	90.7115	214.525
1.9075	94.817	90.6997	214.483
1.91	94.8701	90.688	214.442
1.9125	94.923	90.6765	214.401
1.915	94.9757	90.665	214.359
1.9175	95.0283	90.6537	214.318
1.92	95.0808	90.6425	214.277
1.9225	95.1331	90.6314	214.236
1.925	95.1853	90.6204	214.194
1.9275	95.2373	90.6096	214.153
1.93	95.2892	90.5989	214.112
1.9325	95.3409	90.5882	214.071
1.935	95.3925	90.5778	214.03
1.9375	95.444	90.5674	213.989
1.94	95.4953	90.5571	213.948
1.9425	95.5464	90.547	213.907
1.945	95.5975	90.537	213.866
1.9475	95.6484	90.5271	213.825
1.95	95.6991	90.5173	213.784
1.9525	95.7497	90.5076	213.743
1.955	95.8001	90.498	213.702
1.9575	95.8505	90.4886	213.661
1.96	95.9006	90.4793	213.62
1.9625	95.9507	90.47	213.579
1.965	96.0005	90.4609	213.539
1.9675	96.0503	90.4519	213.498
1.97	96.0999	90.4431	213.457
1.9725	96.1494	90.4343	213.416
1.975	96.1987	90.4257	213.376
1.9775	96.2479	90.4171	213.335
1.98	96.2969	90.4087	213.294
1.9825	96.3458	90.4004	213.254
1.985	96.3945	90.3922	213.213
1.9875	96.4432	90.3841	213.173
1.99	96.4916	90.3761	213.132
1.9925	96.54	90.3682	213.092
1.995	96.5881	90.3605	213.051
1.9975	96.6362	90.3528	213.011
2	96.6841	90.3453	212.971
2.0025	96.7319	90.3378	212.93
2.005	96.7795	90.3305	212.89
2.0075	96.827	90.3233	212.85
2.01	96.8743	90.3162	212.809
2.0125	96.9216	90.3092	212.769
2.015	96.9686	90.3023	212.729
2.0175	97.0155	90.2955	212.689
2.02	97.0623	90.2888	212.649
2.0225	97.109	90.2822	212.609
2.025	97.1555	90.2758	212.569
2.0275	97.2019	90.2694	212.529
2.03	97.2481	90.2631	212.489
2.0325	97.2942	90.257	212.449
2.035	97.3402	90.2509	212.409
2.0375	97.386	90.245	212.369
2.04	97.4316	90.2391	212.329
2.0425	97.4772	90.2334	212.289
2.045	97.5226	90.2277	212.25
2.0475	97.5678	90.2222	212.21
2.05	97.613	90.2168	212.17
2.0525	97.658	90.2114	212.131
2.055	97.7028	90.2062	212.091
2.0575	97.7475	90.2011	212.051
2.06	97.7921	90.196	212.012
2.0625	97.8365	90.1911	211.972
2.065	97.8808	90.1863	211.933
2.0675	97.925	90.1816	211.893
2.07	97.969	90.1769	211.854
2.0725	98.0129	90.1724	211.815
2.075	98.0566	90.168	211.775
2.0775	98.1002	90.1636	211.736
2.08	98.1437	90.1594	211.697
2.0825	98.1871	90.1553	211.658
2.085	98.2303	90.1512	211.619
2.0875	98.2733	90.1473	211.579
2.09	98.3163	90.1435	211.54
2.0925	98.359	90.1397	211.501
2.095	98.4017	90.1361	211.462
2.0975	98.4442	90.1325	211.423
2.1	98.4866	90.129	211.384
2.1025	98.5289	90.1257	211.345
2.105	98.571	90.1224	211.307
2.1075	98.613	90.1192	211.268
2.11	98.6548	90.1162	211.229
2.1125	98.6965	90.1132	211.19
2.115	98.7381	90.1103	211.152
2.1175	98.7795	90.1075	211.113
2.12	98.8208	90.1048	211.074
2.1225	98.862	90.1022	211.036
2.125	98.903	90.0997	210.997
2.1275	98.9439	90.0972	210.959
2.13	98.9847	90.0949	210.92
2.1325	99.0253	90.0927	210.882
2.135	99.0658	90.0905	210.844
2.1375	99.1062	90.0885	210.805
2.14	99.1464	90.0865	210.767
2.1425	99.1865	90.0846	210.729
2.145	99.2265	90.0828	210.691
2.1475	99.2663	90.0811	210.653
2.15	99.306	90.0795	210.614
2.1525	99.3456	90.078	210.576
2.155	99.385	90.0766	210.538
2.1575	99.4243	90.0752	210.5
2.16	99.4635	90.074	210.463
2.1625	99.5025	90.0728	210.425
2.165	99.5414	90.0717	210.387
2.1675	99.5802	90.0708	210.349
2.17	99.6188	90.0699	210.311
2.1725	99.6573	90.069	210.274
2.175	99.6957	90.0683	210.236
2.1775	99.734	90.0677	210.198
2.18	99.7721	90.0671	210.161
2.1825	99.8101	90.0666	210.123
2.185	99.8479	90.0663	210.086
2.1875	99.8856	90.066	210.048
2.19	99.9232	90.0657	210.011
2.1925	99.9607	90.0656	209.974
2.195	99.998	90.0656	209.936
2.1975	100.035	90.0656	209.899
2.2	100.072	90.0657	209.862
2.2025	100.109	90.0659	209.825
2.205	100.146	90.0662	209.788
2.2075	100.183	90.0666	209.751
2.21	100.219	90.067	209.714
2.2125	100.256	90.0676	209.677
2.215	100.292	90.0682	209.64
2.2175	100.328	90.0689	209.603
2.22	100.364	90.0697	209.566
2.2225	100.4	90.0705	209.529
2.225	100.436	90.0715	209.493
2.2275	100.471	90.0725	209.456
2.23	100.507	90.0736	209.419
2.2325	100.542	90.0748	209.383
2.235	100.578	90.076	209.346
2.2375	100.613	90.0774	209.31
2.24	100.648	90.0788	209.274
2.2425	100.683	90.0803	209.237
2.245	100.717	90.0819	209.201
2.2475	100.752	90.0835	209.165
2.25	100.786	90.0853	209.128
2.2525	100.821	90.0871	209.092
2.255	100.855	90.089	209.056
2.2575	100.889	90.0909	209.02
2.26	100.923	90.093	208.984
2.2625	100.957	90.0951	208.948
2.265	100.991	90.0973	208.912
2.2675	101.024	90.0995	208.876
2.27	101.058	90.1019	208.84
2.2725	101.091	90.1043	208.805
2.275	101.124	90.1068	208.769
2.2775	101.157	90.1094	208.733
2.28	101.19	90.112	208.698
2.2825	101.223	90.1147	208.662
2.285	101.256	90.1175	208.626
2.2875	101.289	90.1204	208.591
2.29	101.321	90.1233	208.556
2.2925	101.353	90.1263	208.52
2.295	101.386	90.1294	208.485
2.2975	101.418	90.1326	208.45
2.3	101.45	90.1358	208.414
2.3025	101.482	90.1391	208.379
2.305	101.513	90.1425	208.344
2.3075	101.545	90.1459	208.309
2.31	101.576	90.1495	208.274
2.3125	101.608	90.1531	208.239
2.315	101.639	90.1567	208.204
2.3175	101.67	90.1604	208.17
2.32	101.701	90.1642	208.135
2.3225	101.732	90.1681	208.1
2.325	101.763	90.172	208.065
2.3275	101.793	90.1761	208.031
2.33	101.824	90.1801	207.996
2.3325	101.854	90.1843	207.962
2.335	101.884	90.1885	207.927
2.3375	101.914	90.1928	207.893
2.34	101.945	90.1971	207.858
2.3425	101.974	90.2015	207.824
2.345	102.004	90.206	207.79
2.3475	102.034	90.2106	207.756
2.35	102.063	90.2152	207.721
2.3525	102.093	90.2199	207.687
2.355	102.122	90.2246	207.653
2.3575	102.151	90.2295	207.619
2.36	102.18	90.2343	207.585
2.3625	102.209	90.2393	207.552
2.365	102.238	90.2443	207.518
2.3675	102.267	90.2494	207.484
2.37	102.295	90.2545	207.45
2.3725	102.324	90.2598	207.417
2.375	102.352	90.265	207.383
2.3775	102.38	90.2704	207.35
2.38	102.408	90.2758	207.316
2.3825	102.436	90.2812	207.283
2.385	102.464	90.2868	207.249
2.3875	102.492	90.2924	207.216
2.39	102.519	90.298	207.183
2.3925	102.547	90.3037	207.149
2.395	102.574	90.3095	207.116
2.3975	102.601	90.3154	207.083
2.4	102.629	90.3213	207.05
2.4025	102.656	90.3272	207.017
2.405	102.682	90.3333	206.984
2.4075	102.709	90.3393	206.951
2.41	102.736	90.3455	206.919
2.4125	102.762	90.3517	206.886
2.415	102.789	90.358	206.853
2.4175	102.815	90.3643	206.821
2.42	102.841	90.3707	206.788
2.4225	102.867	90.3771	206.755
2.425	102.893	90.3837	206.723
2.4275	102.919	90.3902	206.69
2.43	102.945	90.3968	206.658
2.4325	102.971	90.4035	206.626
2.435	102.996	90.4103	206.594
2.4375	103.022	90.4171	206.561
2.44	103.047	90.4239	206.529
2.4425	103.072	90.4309	206.497
2.445	103.097	90.4378	206.465
2.4475	103.122	90.4449	206.433
2.45	103.147	90.4519	206.401
2.4525	103.171	90.4591	206.369
2.455	103.196	90.4663	206.338
2.4575	103.22	90.4735	206.306
2.46	103.245	90.4809	206.274
2.4625	103.269	90.4882	206.243
2.465	103.293	90.4956	206.211
2.4675	103.317	90.5031	206.18
2.47	103.341	90.5107	206.148
2.4725	103.365	90.5182	206.117
2.475	103.389	90.5259	206.085
2.4775	103.412	90.5336	206.054
2.48	103.436	90.5413	206.023
2.4825	103.459	90.5491	205.992
2.485	103.482	90.557	205.961
2.4875	103.505	90.5649	205.93
2.49	103.528	90.5729	205.899
2.4925	103.551	90.5809	205.868
2.495	103.574	90.589	205.837
2.4975	103.597	90.5971	205.806
2.5	103.619	90.6052	205.776
2.5025	103.642	90.6135	205.745
2.505	103.664	90.6217	205.714
2.5075	103.686	90.6301	205.684
2.51	103.708	90.6384	205.653
2.5125	103.73	90.6469	205.623
2.515	103.752	90.6554	205.592
2.5175	103.774	90.6639	205.562
2.52	103.796	90.6725	205.532
2.5225	103.817	90.6811	205.502
2.525	103.839	90.6898	205.471
2.5275	103.86	90.6985	205.441
2.53	103.881	90.7073	205.411
2.5325	103.903	90.7161	205.381
2.535	103.924	90.725	205.351
2.5375	103.945	90.7339	205.322
2.54	103.965	90.7429	205.292
2.5425	103.986	90.7519	205.262
2.545	104.007	90.761	205.232
2.5475	104.027	90.7701	205.203
2.55	104.048	90.7792	205.173
2.5525	104.068	90.7884	205.144
2.555	104.088	90.7977	205.114
2.5575	104.108	90.807	205.085
2.56	104.128	90.8164	205.056
2.5625	104.148	90.8258	205.026
2.565	104.168	90.8352	204.997
2.5675	104.187	90.8447	204.968
2.57	104.207	90.8542	204.939
2.5725	104.226	90.8638	204.91
2.575	104.246	90.8734	204.881
2.5775	104.265	90.8831	204.852
2.58	104.284	90.8928	204.823
2.5825	104.303	90.9025	204.795
2.585	104.322	90.9123	204.766
2.5875	104.341	90.9222	204.737
2.59	104.359	90.9321	204.709
2.5925	104.378	90.942	204.68
2.595	104.396	90.952	204.652
2.5975	104.415	90.962	204.623
2.6	104.433	90.9721	204.595
2.6025	104.451	90.9822	204.567
2.605	104.469	90.9923	204.538
2.6075	104.487	91.0025	204.51
2.61	104.505	91.0127	204.482
2.6125	104.523	91.023	204.454
2.615	104.541	91.0333	204.426
2.6175	104.558	91.0437	204.398
2.62	104.576	91.0541	204.37
2.6225	104.593	91.0645	204.343
2.625	104.61	91.075	204.315
2.6275	104.627	91.0855	204.287
2.63	104.644	91.0961	204.259
2.6325	104.661	91.1067	204.232
2.635	104.678	91.1173	204.204
2.6375	104.695	91.128	204.177
2.64	104.712	91.1387	204.15
2.6425	104.728	91.1494	204.122
2.645	104.745	91.1602	204.095
2.6475	104.761	91.1711	204.068
2.65	104.777	91.1819	204.041
2.6525	104.793	91.1928	204.014
2.655	104.81	91.2038	203.987
2.6575	104.825	91.2148	203.96
2.66	104.841	91.2258	203.933
2.6625	104.857	91.2369	203.906
2.665	104.873	91.248	203.879
2.6675	104.888	91.2591	203.853
2.67	104.904	91.2703	203.826
2.6725	104.919	91.2815	203.799
2.675	104.934	91.2927	203.773
2.6775	104.95	91.304	203.746
2.68	104.965	91.3153	203.72
2.6825	104.98	91.3267	203.694
2.685	104.995	91.338	203.667
2.6875	105.009	91.3495	203.641
2.69	105.024	91.3609	203.615
2.6925	105.039	91.3724	203.589
2.695	105.053	91.3839	203.563
2.6975	105.068	91.3955	203.537
2.7	105.082	91.4071	203.511
2.7025	105.096	91.4187	203.485
2.705	105.11	91.4304	203.459
2.7075	105.124	91.4421	203.434
2.71	105.138	91.4538	203.408
2.7125	105.152	91.4656	203.382
2.715	105.166	91.4774	203.357
2.7175	105.179	91.4892	203.331
2.72	105.193	91.5011	203.306
2.7225	105.206	91.513	203.281
2.725	105.22	91.5249	203.255
2.7275	105.233	91.5369	203.23
2.73	105.246	91.5489	203.205
2.7325	105.259	91.5609	203.18
2.735	105.272	91.5729	203.155
2.7375	105.285	91.585	203.13
2.74	105.298	91.5971	203.105
2.7425	105.311	91.6093	203.08
2.745	105.323	91.6215	203.055
2.7475	105.336	91.6337	203.031
2.75	105.348	91.6459	203.006
2.7525	105.36	91.6582	202.981
2.755	105.373	91.6705	202.957
2.7575	105.385	91.6828	202.932
2.76	105.397	91.6952	202.908
2.7625	105.409	91.7075	202.883
2.765	105.421	91.72	202.859
2.7675	105.433	91.7324	202.835
2.77	105.444	91.7449	202.811
2.7725	105.456	91.7574	202.787
2.775	105.468	91.7699	202.763
2.7775	105.479	91.7825	202.739
2.78	105.49	91.795	202.715
2.7825	105.502	91.8077	202.691
2.785	105.513	91.8203	202.667
2.7875	105.524	91.833	202.643
2.79	105.535	91.8457	202.62
2.7925	105.546	91.8584	202.596
2.795	105.557	91.8711	202.572
2.7975	105.567	91.8839	202.549
2.8	105.578	91.8967	202.525
2.8025	105.588	91.9095	202.502
2.805	105.599	91.9224	202.479
2.8075	105.609	91.9353	202.455
2.81	105.62	91.9482	202.432
2.8125	105.63	91.9611	202.409
2.815	105.64	91.9741	202.386
2.8175	105.65	91.987	202.363
2.82	105.66	92.0001	202.34
2.8225	105.67	92.0131	202.317
2.825	105.68	92.0261	202.294
2.8275	105.689	92.0392	202.272
2.83	105.699	92.0523	202.249
2.8325	105.708	92.0654	202.226
2.835	105.718	92.0786	202.204
2.8375	105.727	92.0918	202.181
2.84	105.736	92.105	202.159
2.8425	105.746	92.1182	202.136
2.845	105.755	92.1314	202.114
2.8475	105.764	92.1447	202.092
2.85	105.773	92.158	202.069
2.8525	105.782	92.1713	202.047
2.855	105.79	92.1846	202.025
2.8575	105.799	92.198	202.003
2.86	105.808	92.2114	201.981
2.8625	105.816	92.2248	201.959
2.865	105.825	92.2382	201.937
2.8675	105.833	92.2516	201.915
2.87	105.841	92.2651	201.894
2.8725	105.849	92.2786	201.872
2.875	105.857	92.2921	201.85
2.8775	105.866	92.3056	201.829
2.88	105.873	92.3191	201.807
2.8825	105.881	92.3327	201.786
2.885	105.889	92.3463	201.765
2.8875	105.897	92.3599	201.743
2.89	105.904	92.3735	201.722
2.8925	105.912	92.3872	201.701
2.895	105.919	92.4008	201.68
2.8975	105.927	92.4145	201.659
2.9	105.934	92.4282	201.638
2.9025	105.941	92.4419	201.617
2.905	105.948	92.4557	201.596
2.9075	105.956	92.4694	201.575
2.91	105.963	92.4832	201.554
2.9125	105.969	92.497	201.534
2.915	105.976	92.5108	201.513
2.9175	105.983	92.5247	201.492
2.92	105.99	92.5385	201.472
2.9225	105.996	92.5524	201.451
2.925	106.003	92.5663	201.431
2.9275	106.009	92.5802	201.411
2.93	106.016	92.5941	201.39
2.9325	106.022	92.608	201.37
2.935	106.028	92.622	201.35
2.9375	106.034	92.6359	201.33
2.94	106.04	92.6499	201.31
2.9425	106.046	92.6639	201.29
2.945	106.052	92.6779	201.27
2.9475	106.058	92.692	201.25
2.95	106.064	92.706	201.23
2.9525	106.069	92.7201	201.21
2.955	106.075	92.7341	201.191
2.9575	106.081	92.7482	201.171
2.96	106.086	92.7623	201.152
2.9625	106.091	92.7765	201.132
2.965	106.097	92.7906	201.113
2.9675	106.102	92.8047	201.093
2.97	106.107	92.8189	201.074
2.9725	106.112	92.8331	201.055
2.975	106.117	92.8473	201.035
2.9775	106.122	92.8615	201.016
2.98	106.127	92.8757	200.997
2.9825	106.132	92.8899	200.978
2.985	106.137	92.9042	200.959
2.9875	106.141	92.9184	200.94
2.99	106.146	92.9327	200.921
2.9925	106.15	92.947	200.903
2.995	106.155	92.9613	200.884
2.9975	106.159	92.9756	200.865
3	106.163	92.9899	200.847
3.0025	106.168	93.0043	200.828
3.005	106.172	93.0186	200.81
3.0075	106.176	93.033	200.791
3.01	106.18	93.0473	200.773
3.0125	106.184	93.0617	200.754
3.015	106.188	93.0761	200.736
3.0175	106.191	93.0905	200.718
3.02	106.195	93.1049	200.7
3.0225	106.199	93.1194	200.682
3.025	106.202	93.1338	200.664
3.0275	106.206	93.1482	200.646
3.03	106.209	93.1627	200.628
3.0325	106.213	93.1772	200.61
3.035	106.216	93.1916	200.592
3.0375	106.219	93.2061	200.575
3.04	106.223	93.2206	200.557
3.0425	106.226	93.2351	200.539
3.045	106.229	93.2497	200.522
3.0475	106.232	93.2642	200.504
3.05	106.235	93.2787	200.487
3.0525	106.237	93.2933	200.469
3.055	106.24	93.3078	200.452
3.0575	106.243	93.3224	200.435
3.06	106.246	93.3369	200.418
3.0625	106.248	93.3515	200.4
3.065	106.251	93.3661	200.383
3.0675	106.253	93.3807	200.366
3.07	106.255	93.3953	200.349
3.0725	106.258	93.4099	200.332
3.075	106.26	93.4245	200.316
3.0775	106.262	93.4391	200.299
3.08	106.264	93.4538	200.282
3.0825	106.266	93.4684	200.265
3.085	106.268	93.4831	200.249
3.0875	106.27	93.4977	200.232
3.09	106.272	93.5124	200.216
3.0925	106.274	93.527	200.199
3.095	106.276	93.5417	200.183
3.0975	106.277	93.5564	200.166
3.1	106.279	93.5711	200.15
3.1025	106.28	93.5858	200.134
3.105	106.282	93.6005	200.118
3.1075	106.283	93.6152	200.102
3.11	106.285	93.6299	200.085
3.1125	106.286	93.6446	200.069
3.115	106.287	93.6593	200.054
3.1175	106.288	93.674	200.038
3.12	106.289	93.6888	200.022
3.1225	106.29	93.7035	200.006
3.125	106.291	93.7182	199.99
3.1275	106.292	93.733	199.975
3.13	106.293	93.7477	199.959
3.1325	106.294	93.7625	199.943
3.135	106.295	93.7772	199.928
3.1375	106.295	93.792	199.913
3.14	106.296	93.8068	199.897
3.1425	106.297	93.8215	199.882
3.145	106.297	93.8363	199.867
3.1475	106.298	93.8511	199.851
3.15	106.298	93.8658	199.836
3.1525	106.298	93.8806	199.821
3.155	106.299	93.8954	199.806
3.1575	106.299	93.9102	199.791
3.16	106.299	93.925	199.776
3.1625	106.299	93.9398	199.761
3.165	106.299	93.9546	199.746
3.1675	106.299	93.9694	199.732
3.17	106.299	93.9842	199.717
3.1725	106.299	93.999	199.702
3.175	106.299	94.0138	199.688
3.1775	106.298	94.0286	199.673
3.18	106.298	94.0434	199.659
3.1825	106.298	94.0582	199.644
3.185	106.297	94.073	199.63
3.1875	106.297	94.0878	199.615
3.19	106.296	94.1026	199.601
3.1925	106.296	94.1174	199.587
3.195	106.295	94.1322	199.573
3.1975	106.294	94.1471	199.559
3.2	106.293	94.1619	199.545
3.2025	106.293	94.1767	199.531
3.205	106.292	94.1915	199.517
3.2075	106.291	94.2063	199.503
3.21	106.29	94.2211	199.489
3.2125	106.289	94.236	199.475
3.215	106.288	94.2508	199.461
3.2175	106.287	94.2656	199.448
3.22	106.285	94.2804	199.434
3.2225	106.284	94.2952	199.421
3.225	106.283	94.31	199.407
3.2275	106.281	94.3248	199.394
3.23	106.28	94.3397	199.38
3.2325	106.279	94.3545	199.367
3.235	106.277	94.3693	199.354
3.2375	106.276	94.3841	199.34
3.24	106.274	94.3989	199.327
3.2425	106.272	94.4137	199.314
3.245	106.271	94.4285	199.301
3.2475	106.269	94.4433	199.288
3.25	106.267	94.4581	199.275
3.2525	106.265	94.4729	199.262
3.255	106.263	94.4877	199.249
3.2575	106.261	94.5025	199.236
3.26	106.259	94.5173	199.224
3.2625	106.257	94.5321	199.211
3.265	106.255	94.5469	199.198
3.2675	106.253	94.5616	199.186
3.27	106.251	94.5764	199.173
3.2725	106.248	94.5912	199.161
3.275	106.246	94.606	199.148
3.2775	106.244	94.6207	199.136
3.28	106.241	94.6355	199.123
3.2825	106.239	94.6503	199.111
3.285	106.236	94.665	199.099
3.2875	106.234	94.6798	199.087
3.29	106.231	94.6945	199.075
3.2925	106.228	94.7093	199.062
3.295	106.226	94.724	199.05
3.2975	106.223	94.7388	199.038
3.3	106.22	94.7535	199.027
3.3025	106.217	94.7682	199.015
3.305	106.214	94.783	199.003
3.3075	106.211	94.7977	198.991
3.31	106.208	94.8124	198.979
3.3125	106.205	94.8271	198.968
3.315	106.202	94.8418	198.956
3.3175	106.199	94.8565	198.944
3.32	106.196	94.8712	198.933
3.3225	106.193	94.8859	198.922
3.325	106.189	94.9006	198.91
3.3275	106.186	94.9153	198.899
3.33	106.183	94.93	198.887
3.3325	106.179	94.9446	198.876
3.335	106.176	94.9593	198.865
3.3375	106.172	94.974	198.854
3.34	106.169	94.9886	198.843
3.3425	106.165	95.0033	198.832
3.345	106.161	95.0179	198.821
3.3475	106.158	95.0325	198.81
3.35	106.154	95.0472	198.799
3.3525	106.15	95.0618	198.788
3.355	106.146	95.0764	198.777
3.3575	106.143	95.091	198.766
3.36	106.139	95.1056	198.756
3.3625	106.135	95.1202	198.745
3.365	106.131	95.1348	198.734
3.3675	106.127	95.1494	198.724
3.37	106.123	95.1639	198.713
3.3725	106.119	95.1785	198.703
3.375	106.114	95.193	198.692
3.3775	106.11	95.2076	198.682
3.38	106.106	95.2221	198.672
3.3825	106.102	95.2367	198.662
3.385	106.097	95.2512	198.651
3.3875	106.093	95.2657	198.641
3.39	106.089	95.2802	198.631
3.3925	106.084	95.2947	198.621
3.395	106.08	95.3092	198.611
3.3975	106.075	95.3237	198.601
3.4	106.071	95.3382	198.591
3.4025	106.066	95.3526	198.581
3.405	106.062	95.3671	198.571
3.4075	106.057	95.3815	198.562
3.41	106.052	95.396	198.552
3.4125	106.047	95.4104	198.542
3.415	106.043	95.4248	198.533
3.4175	106.038	95.4392	198.523
3.42	106.033	95.4536	198.513
3.4225	106.028	95.468	198.504
3.425	106.023	95.4824	198.495
3.4275	106.018	95.4968	198.485
3.43	106.013	95.5111	198.476
3.4325	106.008	95.5255	198.467
3.435	106.003	95.5398	198.457
3.4375	105.998	95.5542	198.448
3.44	105.993	95.5685	198.439
3.4425	105.987	95.5828	198.43
3.445	105.982	95.5971	198.421
3.4475	105.977	95.6114	198.412
3.45	105.972	95.6257	198.403
3.4525	105.966	95.6399	198.394
3.455	105.961	95.6542	198.385
3.4575	105.955	95.6684	198.376
3.46	105.95	95.6827	198.367
3.4625	105.944	95.6969	198.359
3.465	105.939	95.7111	198.35
3.4675	105.933	95.7253	198.341
3.47	105.928	95.7395	198.333
3.4725	105.922	95.7537	198.324
3.475	105.916	95.7679	198.316
3.4775	105.911	95.782	198.307
3.48	105.905	95.7962	198.299
3.4825	105.899	95.8103	198.291
3.485	105.893	95.8244	198.282
3.4875	105.887	95.8386	198.274
3.49	105.882	95.8527	198.266
3.4925	105.876	95.8667	198.258
3.495	105.87	95.8808	198.249
3.4975	105.864	95.8949	198.241
3.5	105.858	95.9089	198.233
3.5025	105.852	95.923	198.225
3.505	105.846	95.937	198.217
3.5075	105.84	95.951	198.209
3.51	105.833	95.965	198.202
3.5125	105.827	95.979	198.194
3.515	105.821	95.993	198.186
3.5175	105.815	96.0069	198.178
3.52	105.809	96.0209	198.171
3.5225	105.802	96.0348	198.163
3.525	105.796	96.0488	198.155
3.5275	105.79	96.0627	198.148
3.53	105.783	96.0766	198.14
3.5325	105.777	96.0905	198.133
3.535	105.77	96.1043	198.125
3.5375	105.764	96.1182	198.118
3.54	105.757	96.132	198.111
3.5425	105.751	96.1459	198.103
3.545	105.744	96.1597	198.096
3.5475	105.738	96.1735	198.089
3.55	105.731	96.1873	198.082
3.5525	105.724	96.201	198.075
3.555	105.718	96.2148	198.068
3.5575	105.711	96.2285	198.061
3.56	105.704	96.2423	198.054
3.5625	105.697	96.256	198.047
3.565	105.691	96.2697	198.04
3.5675	105.684	96.2834	198.033
3.57	105.677	96.2971	198.026
3.5725	105.67	96.3107	198.019
3.575	105.663	96.3244	198.013
3.5775	105.656	96.338	198.006
3.58	105.649	96.3516	197.999
3.5825	105.642	96.3652	197.993
3.585	105.635	96.3788	197.986
3.5875	105.628	96.3924	197.98
3.59	105.621	96.4059	197.973
3.5925	105.614	96.4194	197.967
3.595	105.607	96.433	197.96
3.5975	105.6	96.4465	197.954
3.6	105.592	96.46	197.948
3.6025	105.585	96.4735	197.941
3.605	105.578	96.4869	197.935
3.6075	105.571	96.5004	197.929
3.61	105.563	96.5138	197.923
3.6125	105.556	96.5272	197.917
3.615	105.549	96.5406	197.911
3.6175	105.541	96.554	197.905
3.62	105.534	96.5674	197.899
3.6225	105.526	96.5807	197.893
3.625	105.519	96.594	197.887
3.6275	105.512	96.6074	197.881
3.63	105.504	96.6207	197.875
3.6325	105.497	96.634	197.869
3.635	105.489	96.6472	197.864
3.6375	105.481	96.6605	197.858
3.64	105.474	96.6737	197.852
3.6425	105.466	96.6869	197.847
3.645	105.459	96.7001	197.841
3.6475	105.451	96.7133	197.836
3.65	105.443	96.7265	197.83
3.6525	105.436	96.7397	197.825
3.655	105.428	96.7528	197.819
3.6575	105.42	96.7659	197.814
3.66	105.412	96.779	197.809
3.6625	105.405	96.7921	197.803
3.665	105.397	96.8052	197.798
3.6675	105.389	96.8182	197.793
3.67	105.381	96.8313	197.788
3.6725	105.373	96.8443	197.783
3.675	105.365	96.8573	197.777
3.6775	105.357	96.8703	197.772
3.68	105.349	96.8832	197.767
3.6825	105.341	96.8962	197.762
3.685	105.333	96.9091	197.757
3.6875	105.325	96.922	197.753
3.69	105.317	96.9349	197.748
3.6925	105.309	96.9478	197.743
3.695	105.301	96.9607	197.738
3.6975	105.293	96.9735	197.733
3.7	105.285	96.9863	197.729
3.7025	105.277	96.9991	197.724
3.705	105.269	97.0119	197.719
3.7075	105.261	97.0247	197.715
3.71	105.252	97.0374	197.71
3.7125	105.244	97.0502	197.706
3.715	105.236	97.0629	197.701
3.7175	105.228	97.0756	197.697
3.72	105.22	97.0883	197.692
3.7225	105.211	97.1009	197.688
3.725	105.203	97.1136	197.684
3.7275	105.195	97.1262	197.679
3.73	105.186	97.1388	197.675
3.7325	105.178	97.1514	197.671
3.735	105.17	97.1639	197.667
3.7375	105.161	97.1765	197.662
3.74	105.153	97.189	197.658
3.7425	105.144	97.2015	197.654
3.745	105.136	97.214	197.65
3.7475	105.127	97.2265	197.646
3.75	105.119	97.2389	197.642
3.7525	105.11	97.2514	197.638
3.755	105.102	97.2638	197.634
3.7575	105.093	97.2762	197.63
3.76	105.085	97.2886	197.627
3.7625	105.076	97.3009	197.623
3.765	105.068	97.3133	197.619
3.7675	105.059	97.3256	197.615
3.77	105.05	97.3379	197.612
3.7725	105.042	97.3502	197.608
3.775	105.033	97.3624	197.604
3.7775	105.025	97.3747	197.601
3.78	105.016	97.3869	197.597
3.7825	105.007	97.3991	197.594
3.785	104.998	97.4113	197.59
3.7875	104.99	97.4234	197.587
3.79	104.981	97.4356	197.583
3.7925	104.972	97.4477	197.58
3.795	104.963	97.4598	197.577
3.7975	104.955	97.4719	197.573
3.8	104.946	97.4839	197.57
3.8025	104.937	97.496	197.567
3.805	104.928	97.508	197.564
3.8075	104.919	97.52	197.561
3.81	104.911	97.532	197.557
3.8125	104.902	97.544	197.554
3.815	104.893	97.5559	197.551
3.8175	104.884	97.5678	197.548
3.82	104.875	97.5797	197.545
3.8225	104.866	97.5916	197.542
3.825	104.857	97.6035	197.539
3.8275	104.848	97.6153	197.536
3.83	104.839	97.6271	197.534
3.8325	104.83	97.6389	197.531
3.835	104.821	97.6507	197.528
3.8375	104.812	97.6625	197.525
3.84	104.803	97.6742	197.522
3.8425	104.794	97.6859	197.52
3.845	104.785	97.6976	197.517
3.8475	104.776	97.7093	197.514
3.85	104.767	97.721	197.512
3.8525	104.758	97.7326	197.509
3.855	104.749	97.7442	197.507
3.8575	104.74	97.7558	197.504
3.86	104.731	97.7674	197.502
3.8625	104.722	97.7789	197.499
3.865	104.713	97.7905	197.497
3.8675	104.704	97.802	197.494
3.87	104.694	97.8135	197.492
3.8725	104.685	97.8249	197.49
3.875	104.676	97.8364	197.488
3.8775	104.667	97.8478	197.485
3.88	104.658	97.8592	197.483
3.8825	104.649	97.8706	197.481
3.885	104.639	97.882	197.479
3.8875	104.63	97.8933	197.477
3.89	104.621	97.9046	197.474
3.8925	104.612	97.9159	197.472
3.895	104.602	97.9272	197.47
3.8975	104.593	97.9385	197.468
3.9	104.584	97.9497	197.466
3.9025	104.575	97.9609	197.464
3.905	104.565	97.9721	197.463
3.9075	104.556	97.9833	197.461
3.91	104.547	97.9944	197.459
3.9125	104.537	98.0056	197.457
3.915	104.528	98.0167	197.455
3.9175	104.519	98.0278	197.453
3.92	104.509	98.0388	197.452
3.9225	104.5	98.0499	197.45
3.925	104.491	98.0609	197.448
3.9275	104.481	98.0719	197.447
3.93	104.472	98.0829	197.445
3.9325	104.463	98.0938	197.443
3.935	104.453	98.1047	197.442
3.9375	104.444	98.1157	197.44
3.94	104.435	98.1265	197.439
3.9425	104.425	98.1374	197.437
3.945	104.416	98.1483	197.436
3.9475	104.406	98.1591	197.435
3.95	104.397	98.1699	197.433
3.9525	104.387	98.1807	197.432
3.955	104.378	98.1914	197.431
3.9575	104.369	98.2022	197.429
3.96	104.359	98.2129	197.428
3.9625	104.35	98.2236	197.427
3.965	104.34	98.2342	197.426
3.9675	104.331	98.2449	197.424
3.97	104.321	98.2555	197.423
3.9725	104.312	98.2661	197.422
3.975	104.302	98.2767	197.421
3.9775	104.293	98.2873	197.42
3.98	104.283	98.2978	197.419
3.9825	104.274	98.3083	197.418
3.985	104.264	98.3188	197.417
3.9875	104.255	98.3293	197.416
3.99	104.245	98.3397	197.415
3.9925	104.236	98.3501	197.414
3.995	104.226	98.3605	197.413
3.9975	104.217	98.3709	197.412
4	104.207	98.3813	197.411
4.0025	104.198	98.3916	197.411
4.005	104.188	98.4019	197.41
4.0075	104.179	98.4122	197.409
4.01	104.169	98.4225	197.408
4.0125	104.159	98.4327	197.408
4.015	104.15	98.443	197.407
4.0175	104.14	98.4532	197.406
4.02	104.131	98.4634	197.406
4.0225	104.121	98.4735	197.405
4.025	104.112	98.4836	197.405
4.0275	104.102	98.4938	197.404
4.03	104.092	98.5038	197.404
4.0325	104.083	98.5139	197.403
4.035	104.073	98.524	197.403
4.0375	104.064	98.534	197.402
4.04	104.054	98.544	197.402
4.0425	104.045	98.554	197.402
4.045	104.035	98.5639	197.401
4.0475	104.025	98.5738	197.401
4.05	104.016	98.5838	197.401
4.0525	104.006	98.5936	197.4
4.055	103.997	98.6035	197.4
4.0575	103.987	98.6133	197.4
4.06	103.977	98.6232	197.4
4.0625	103.968	98.633	197.399
4.065	103.958	98.6427	197.399
4.0675	103.948	98.6525	197.399
4.07	103.939	98.6622	197.399
4.0725	103.929	98.6719	197.399
4.075	103.92	98.6816	197.399
4.0775	103.91	98.6912	197.399
4.08	103.9	98.7009	197.399
4.0825	103.891	98.7105	197.399
4.085	103.881	98.7201	197.399
4.0875	103.871	98.7296	197.399
4.09	103.862	98.7392	197.399
4.0925	103.852	98.7487	197.399
4.095	103.843	98.7582	197.399
4.0975	103.833	98.7677	197.399
4.1	103.823	98.7771	197.4
4.1025	103.814	98.7866	197.4
4.105	103.804	98.796	197.4
4.1075	103.794	98.8054	197.4
4.11	103.785	98.8147	197.401
4.1125	103.775	98.8241	197.401
4.115	103.765	98.8334	197.401
4.1175	103.756	98.8427	197.402
4.12	103.746	98.8519	197.402
4.1225	103.737	98.8612	197.402
4.125	103.727	98.8704	197.403
4.1275	103.717	98.8796	197.403
4.13	103.708	98.8888	197.404
4.1325	103.698	98.8979	197.404
4.135	103.688	98.9071	197.405
4.1375	103.679	98.9162	197.405
4.14	103.669	98.9253	197.406
4.1425	103.659	98.9343	197.406
4.145	103.65	98.9434	197.407
4.1475	103.64	98.9524	197.407
4.15	103.631	98.9614	197.408
4.1525	103.621	98.9704	197.409
4.155	103.611	98.9793	197.409
4.1575	103.602	98.9882	197.41
4.16	103.592	98.9971	197.411
4.1625	103.582	99.006	197.412
4.165	103.573	99.0149	197.412
4.1675	103.563	99.0237	197.413
4.17	103.554	99.0325	197.414
4.1725	103.544	99.0413	197.415
4.175	103.534	99.0501	197.416
4.1775	103.525	99.0588	197.416
4.18	103.515	99.0675	197.417
4.1825	103.506	99.0762	197.418
4.185	103.496	99.0849	197.419
4.1875	103.486	99.0935	197.42
4.19	103.477	99.1022	197.421
4.1925	103.467	99.1108	197.422
4.195	103.458	99.1193	197.423
4.1975	103.448	99.1279	197.424
4.2	103.438	99.1364	197.425
4.2025	103.429	99.1449	197.426
4.205	103.419	99.1534	197.427
4.2075	103.41	99.1619	197.428
4.21	103.4	99.1703	197.43
4.2125	103.391	99.1787	197.431
4.215	103.381	99.1871	197.432
4.2175	103.371	99.1955	197.433
4.22	103.362	99.2039	197.434
4.2225	103.352	99.2122	197.435
4.225	103.343	99.2205	197.437
4.2275	103.333	99.2288	197.438
4.23	103.324	99.237	197.439
4.2325	103.314	99.2453	197.441
4.235	103.305	99.2535	197.442
4.2375	103.295	99.2617	197.443
4.24	103.286	99.2698	197.445
4.2425	103.276	99.278	197.446
4.245	103.267	99.2861	197.447
4.2475	103.257	99.2942	197.449
4.25	103.248	99.3023	197.45
4.2525	103.238	99.3103	197.452
4.255	103.229	99.3183	197.453
4.2575	103.219	99.3263	197.455
4.26	103.21	99.3343	197.456
4.2625	103.2	99.3423	197.458
4.265	103.191	99.3502	197.459
4.2675	103.181	99.3581	197.461
4.27	103.172	99.366	197.462
4.2725	103.162	99.3739	197.464
4.275	103.153	99.3817	197.466
4.2775	103.143	99.3896	197.467
4.28	103.134	99.3974	197.469
4.2825	103.124	99.4051	197.47
4.285	103.115	99.4129	197.472
4.2875	103.106	99.4206	197.474
4.29	103.096	99.4283	197.476
4.2925	103.087	99.436	197.477
4.295	103.077	99.4437	197.479
4.2975	103.068	99.4513	197.481
4.3	103.058	99.4589	197.483
4.3025	103.049	99.4665	197.484
4.305	103.04	99.4741	197.486
4.3075	103.03	99.4816	197.488
4.31	103.021	99.4892	197.49
4.3125	103.012	99.4967	197.492
4.315	103.002	99.5041	197.494
4.3175	102.993	99.5116	197.496
4.32	102.983	99.519	197.497
4.3225	102.974	99.5264	197.499
4.325	102.965	99.5338	197.501
4.3275	102.955	99.5412	197.503
4.33	102.946	99.5485	197.505
4.3325	102.937	99.5559	197.507
4.335	102.927	99.5632	197.509
4.3375	102.918	99.5704	197.511
4.34	102.909	99.5777	197.513
4.3425	102.9	99.5849	197.515
4.345	102.89	99.5921	197.518
4.3475	102.881	99.5993	197.52
4.35	102.872	99.6065	197.522
4.3525	102.863	99.6136	197.524
4.355	102.853	99.6207	197.526
4.3575	102.844	99.6278	197.528
4.36	102.835	99.6349	197.53
4.3625	102.826	99.642	197.533
4.365	102.816	99.649	197.535
4.3675	102.807	99.656	197.537
4.37	102.798	99.663	197.539
4.3725	102.789	99.6699	197.541
4.375	102.78	99.6769	197.544
4.3775	102.77	99.6838	197.546
4.38	102.761	99.6907	197.548
4.3825	102.752	99.6975	197.55
4.385	102.743	99.7044	197.553
4.3875	102.734	99.7112	197.555
4.39	102.725	99.718	197.557
4.3925	102.715	99.7248	197.56
4.395	102.706	99.7316	197.562
4.3975	102.697	99.7383	197.565
4.4	102.688	99.745	197.567
4.4025	102.679	99.7517	197.569
4.405	102.67	99.7584	197.572
4.4075	102.661	99.765	197.574
4.41	102.652	99.7716	197.577
4.4125	102.643	99.7782	197.579
4.415	102.634	99.7848	197.582
4.4175	102.624	99.7914	197.584
4.42	102.615	99.7979	197.587
4.4225	102.606	99.8044	197.589
4.425	102.597	99.8109	197.592
4.4275	102.588	99.8174	197.594
4.43	102.579	99.8238	197.597
4.4325	102.57	99.8303	197.599
4.435	102.561	99.8367	197.602
4.4375	102.552	99.8431	197.605
4.44	102.543	99.8494	197.607
4.4425	102.534	99.8558	197.61
4.445	102.526	99.8621	197.612
4.4475	102.517	99.8684	197.615
4.45	102.508	99.8746	197.618
4.4525	102.499	99.8809	197.62
4.455	102.49	99.8871	197.623
4.4575	102.481	99.8933	197.626
4.46	102.472	99.8995	197.628
4.4625	102.463	99.9057	197.631
4.465	102.454	99.9118	197.634
4.4675	102.445	99.9179	197.637
4.47	102.437	99.924	197.639
4.4725	102.428	99.9301	197.642
4.475	102.419	99.9362	197.645
4.4775	102.41	99.9422	197.648
4.48	102.401	99.9482	197.651
4.4825	102.392	99.9542	197.653
4.485	102.384	99.9602	197.656
4.4875	102.375	99.9661	197.659
4.49	102.366	99.972	197.662
4.4925	102.357	99.9779	197.665
4.495	102.349	99.9838	197.668
4.4975	102.34	99.9897	197.67
4.5	102.331	99.9955	197.673
4.5025	102.322	100.001	197.676
4.505	102.314	100.007	197.679
4.5075	102.305	100.013	197.682
4.51	102.296	100.019	197.685
4.5125	102.288	100.024	197.688
4.515	102.279	100.03	197.691
4.5175	102.27	100.036	197.694
4.52	102.262	100.041	197.697
4.5225	102.253	100.047	197.7
4.525	102.244	100.053	197.703
4.5275	102.236	100.058	197.706
4.53	102.227	100.064	197.709
4.5325	102.219	100.069	197.712
4.535	102.21	100.075	197.715
4.5375	102.201	100.081	197.718
4.54	102.193	100.086	197.721
4.5425	102.184	100.091	197.724
4.545	102.176	100.097	197.727
4.5475	102.167	100.102	197.73
4.55	102.159	100.108	197.733
4.5525	102.15	100.113	197.737
4.555	102.142	100.119	197.74
4.5575	102.133	100.124	197.743
4.56	102.125	100.129	197.746
4.5625	102.116	100.135	197.749
4.565	102.108	100.14	197.752
4.5675	102.1	100.145	197.755
4.57	102.091	100.15	197.759
4.5725	102.083	100.156	197.762
4.575	102.074	100.161	197.765
4.5775	102.066	100.166	197.768
4.58	102.058	100.171	197.771
4.5825	102.049	100.176	197.775
4.585	102.041	100.181	197.778
4.5875	102.033	100.186	197.781
4.59	102.024	100.192	197.784
4.5925	102.016	100.197	197.787
4.595	102.008	100.202	197.791
4.5975	101.999	100.207	197.794
4.6	101.991	100.212	197.797
4.6025	101.983	100.217	197.801
4.605	101.974	100.222	197.804
4.6075	101.966	100.227	197.807
4.61	101.958	100.231	197.81
4.6125	101.95	100.236	197.814
4.615	101.942	100.241	197.817
4.6175	101.933	100.246	197.82
4.62	101.925	100.251	197.824
4.6225	101.917	100.256	197.827
4.625	101.909	100.261	197.831
4.6275	101.901	100.265	197.834
4.63	101.893	100.27	197.837
4.6325	101.885	100.275	197.841
4.635	101.876	100.28	197.844
4.6375	101.868	100.284	197.847
4.64	101.86	100.289	197.851
4.6425	101.852	100.294	197.854
4.645	101.844	100.298	197.858
4.6475	101.836	100.303	197.861
4.65	101.828	100.307	197.865
4.6525	101.82	100.312	197.868
4.655	101.812	100.317	197.871
4.6575	101.804	100.321	197.875
4.66	101.796	100.326	197.878
4.6625	101.788	100.33	197.882
4.665	101.78	100.335	197.885
4.6675	101.772	100.339	197.889
4.67	101.764	100.343	197.892
4.6725	101.756	100.348	197.896
4.675	101.748	100.352	197.899
4.6775	101.741	100.357	197.903
4.68	101.733	100.361	197.906
4.6825	101.725	100.365	197.91
4.685	101.717	100.37	197.913
4.6875	101.709	100.374	197.917
4.69	101.701	100.378	197.92
4.6925	101.694	100.382	197.924
4.695	101.686	100.387	197.928
4.6975	101.678	100.391	197.931
4.7	101.67	100.395	197.935
4.7025	101.662	100.399	197.938
4.705	101.655	100.403	197.942
4.7075	101.647	100.408	197.945
4.71	101.639	100.412	197.949
4.7125	101.632	100.416	197.953
4.715	101.624	100.42	197.956
4.7175	101.616	100.424	197.96
4.72	101.609	100.428	197.963
4.7225	101.601	100.432	197.967
4.725	101.593	100.436	197.971
4.7275	101.586	100.44	197.974
4.73	101.578	100.444	197.978
4.7325	101.57	100.448	197.982
4.735	101.563	100.452	197.985
4.7375	101.555	100.456	197.989
4.74	101.548	100.46	197.993
4.7425	101.54	100.464	197.996
4.745	101.533	100.467	198
4.7475	101.525	100.471	198.004
4.75	101.518	100.475	198.007
4.7525	101.51	100.479	198.011
4.755	101.503	100.483	198.015
4.7575	101.495	100.487	198.018
4.76	101.488	100.49	198.022
4.7625	101.48	100.494	198.026
4.765	101.473	100.498	198.029
4.7675	101.466	100.501	198.033
4.77	101.458	100.505	198.037
4.7725	101.451	100.509	198.04
4.775	101.443	100.512	198.044
4.7775	101.436	100.516	198.048
4.78	101.429	100.52	198.052
4.7825	101.421	100.523	198.055
4.785	101.414	100.527	198.059
4.7875	101.407	100.53	198.063
4.79	101.4	100.534	198.067
4.7925	101.392	100.537	198.07
4.795	101.385	100.541	198.074
4.7975	101.378	100.544	198.078
4.8	101.371	100.548	198.082
4.8025	101.363	100.551	198.085
4.805	101.356	100.555	198.089
4.8075	101.349	100.558	198.093
4.81	101.342	100.561	198.097
4.8125	101.335	100.565	198.101
4.815	101.328	100.568	198.104
4.8175	101.32	100.571	198.108
4.82	101.313	100.575	198.112
4.8225	101.306	100.578	198.116
4.825	101.299	100.581	198.12
4.8275	101.292	100.585	198.123
4.83	101.285	100.588	198.127
4.8325	101.278	100.591	198.131
4.835	101.271	100.594	198.135
4.8375	101.264	100.597	198.139
4.84	101.257	100.601	198.142
4.8425	101.25	100.604	198.146
4.845	101.243	100.607	198.15
4.8475	101.236	100.61	198.154
4.85	101.229	100.613	198.158
4.8525	101.222	100.616	198.162
4.855	101.215	100.619	198.165
4.8575	101.208	100.622	198.169
4.86	101.202	100.625	198.173
4.8625	101.195	100.628	198.177
4.865	101.188	100.631	198.181
4.8675	101.181	100.634	198.185
4.87	101.174	100.637	198.189
4.8725	101.167	100.64	198.192
4.875	101.161	100.643	198.196
4.8775	101.154	100.646	198.2
4.88	101.147	100.649	198.204
4.8825	101.14	100.652	198.208
4.885	101.134	100.655	198.212
4.8875	101.127	100.658	198.216
4.89	101.12	100.66	198.219
4.8925	101.114	100.663	198.223
4.895	101.107	100.666	198.227
4.8975	101.1	100.669	198.231
4.9	101.094	100.671	198.235
4.9025	101.087	100.674	198.239
4.905	101.08	100.677	198.243
4.9075	101.074	100.68	198.247
4.91	101.067	100.682	198.251
4.9125	101.061	100.685	198.254
4.915	101.054	100.688	198.258
4.9175	101.047	100.69	198.262
4.92	101.041	100.693	198.266
4.9225	101.034	100.696	198.27
4.925	101.028	100.698	198.274
4.9275	101.021	100.701	198.278
4.93	101.015	100.703	198.282
4.9325	101.009	100.706	198.286
4.935	101.002	100.708	198.29
4.9375	100.996	100.711	198.293
4.94	100.989	100.713	198.297
4.9425	100.983	100.716	198.301
4.945	100.976	100.718	198.305
4.9475	100.97	100.721	198.309
4.95	100.964	100.723	198.313
4.9525	100.957	100.726	198.317
4.955	100.951	100.728	198.321
4.9575	100.945	100.73	198.325
4.96	100.938	100.733	198.329
4.9625	100.932	100.735	198.333
4.965	100.926	100.738	198.337
4.9675	100.92	100.74	198.34
4.97	100.913	100.742	198.344
4.9725	100.907	100.744	198.348
4.975	100.901	100.747	198.352
4.9775	100.895	100.749	198.356
4.98	100.889	100.751	198.36
4.9825	100.883	100.753	198.364
4.985	100.876	100.756	198.368
4.9875	100.87	100.758	198.372
4.99	100.864	100.76	198.376
4.9925	100.858	100.762	198.38
4.995	100.852	100.764	198.384
4.9975	100.846	100.767	198.388
5	100.84	100.769	198.392
5.0025	100.834	100.771	198.395
5.005	100.828	100.773	198.399
5.0075	100.822	100.775	198.403
5.01	100.816	100.777	198.407
5.0125	100.81	100.779	198.411
5.015	100.804	100.781	198.415
5.0175	100.798	100.783	198.419
5.02	100.792	100.785	198.423
5.0225	100.786	100.787	198.427
5.025	100.78	100.789	198.431
5.0275	100.774	100.791	198.435
5.03	100.768	100.793	198.439
5.0325	100.762	100.795	198.443
5.035	100.757	100.797	198.447
5.0375	100.751	100.799	198.451
5.04	100.745	100.801	198.454
5.0425	100.739	100.802	198.458
5.045	100.733	100.804	198.462
5.0475	100.728	100.806	198.466
5.05	100.722	100.808	198.47
5.0525	100.716	100.81	198.474
5.055	100.71	100.812	198.478
5.0575	100.705	100.813	198.482
5.06	100.699	100.815	198.486
5.0625	100.693	100.817	198.49
5.065	100.688	100.819	198.494
5.0675	100.682	100.82	198.498
5.07	100.676	100.822	198.502
5.0725	100.671	100.824	198.506
5.075	100.665	100.825	198.509
5.0775	100.659	100.827	198.513
5.08	100.654	100.829	198.517
5.0825	100.648	100.83	198.521
5.085	100.643	100.832	198.525
5.0875	100.637	100.834	198.529
5.09	100.632	100.835	198.533
5.0925	100.626	100.837	198.537
5.095	100.621	100.838	198.541
5.0975	100.615	100.84	198.545
5.1	100.61	100.842	198.549
5.1025	100.604	100.843	198.553
5.105	100.599	100.845	198.557
5.1075	100.593	100.846	198.56
5.11	100.588	100.848	198.564
5.1125	100.583	100.849	198.568
5.115	100.577	100.85	198.572
5.1175	100.572	100.852	198.576
5.12	100.567	100.853	198.58
5.1225	100.561	100.855	198.584
5.125	100.556	100.856	198.588
5.1275	100.551	100.858	198.592
5.13	100.545	100.859	198.596
5.1325	100.54	100.86	198.6
5.135	100.535	100.862	198.603
5.1375	100.53	100.863	198.607
5.14	100.524	100.864	198.611
5.1425	100.519	100.866	198.615
5.145	100.514	100.867	198.619
5.1475	100.509	100.868	198.623
5.15	100.504	100.87	198.627
5.1525	100.498	100.871	198.631
5.155	100.493	100.872	198.635
5.1575	100.488	100.873	198.638
5.16	100.483	100.875	198.642
5.1625	100.478	100.876	198.646
5.165	100.473	100.877	198.65
5.1675	100.468	100.878	198.654
5.17	100.463	100.879	198.658
5.1725	100.458	100.88	198.662
5.175	100.453	100.882	198.666
5.1775	100.448	100.883	198.67
5.18	100.443	100.884	198.673
5.1825	100.438	100.885	198.677
5.185	100.433	100.886	198.681
5.1875	100.428	100.887	198.685
5.19	100.423	100.888	198.689
5.1925	100.418	100.889	198.693
5.195	100.413	100.89	198.697
5.1975	100.408	100.891	198.7
5.2	100.403	100.892	198.704
5.2025	100.398	100.893	198.708
5.205	100.394	100.894	198.712
5.2075	100.389	100.895	198.716
5.21	100.384	100.896	198.72
5.2125	100.379	100.897	198.723
5.215	100.374	100.898	198.727
5.2175	100.37	100.899	198.731
5.22	100.365	100.9	198.735
5.2225	100.36	100.901	198.739
5.225	100.355	100.902	198.743
5.2275	100.351	100.903	198.746
5.23	100.346	100.904	198.75
5.2325	100.341	100.905	198.754
5.235	100.337	100.905	198.758
5.2375	100.332	100.906	198.762
5.24	100.327	100.907	198.766
5.2425	100.323	100.908	198.769
5.245	100.318	100.909	198.773
5.2475	100.313	100.91	198.777
5.25	100.309	100.91	198.781
5.2525	100.304	100.911	198.785
5.255	100.3	100.912	198.788
5.2575	100.295	100.913	198.792
5.26	100.291	100.913	198.796
5.2625	100.286	100.914	198.8
5.265	100.282	100.915	198.804
5.2675	100.277	100.916	198.807
5.27	100.273	100.916	198.811
5.2725	100.268	100.917	198.815
5.275	100.264	100.918	198.819
5.2775	100.259	100.918	198.822
5.28	100.255	100.919	198.826
5.2825	100.251	100.92	198.83
5.285	100.246	100.92	198.834
5.2875	100.242	100.921	198.837
5.29	100.237	100.921	198.841
5.2925	100.233	100.922	198.845
5.295	100.229	100.923	198.849
5.2975	100.224	100.923	198.852
5.3	100.22	100.924	198.856
5.3025	100.216	100.924	198.86
5.305	100.212	100.925	198.864
5.3075	100.207	100.925	198.867
5.31	100.203	100.926	198.871
5.3125	100.199	100.926	198.875
5.315	100.195	100.927	198.879
5.3175	100.19	100.927	198.882
5.32	100.186	100.928	198.886
5.3225	100.182	100.928	198.89
5.325	100.178	100.929	198.893
5.3275	100.174	100.929	198.897
5.33	100.17	100.93	198.901
5.3325	100.166	100.93	198.905
5.335	100.161	100.93	198.908
5.3375	100.157	100.931	198.912
5.34	100.153	100.931	198.916
5.3425	100.149	100.932	198.919
5.345	100.145	100.932	198.923
5.3475	100.141	100.932	198.927
5.35	100.137	100.933	198.93
5.3525	100.133	100.933	198.934
5.355	100.129	100.933	198.938
5.3575	100.125	100.934	198.941
5.36	100.121	100.934	198.945
5.3625	100.117	100.934	198.949
5.365	100.113	100.935	198.952
5.3675	100.109	100.935	198.956
5.37	100.105	100.935	198.96
5.3725	100.101	100.935	198.963
5.375	100.098	100.936	198.967
5.3775	100.094	100.936	198.97
5.38	100.09	100.936	198.974
5.3825	100.086	100.936	198.978
5.385	100.082	100.937	198.981
5.3875	100.078	100.937	198.985
5.39	100.075	100.937	198.988
5.3925	100.071	100.937	198.992
5.395	100.067	100.937	198.996
5.3975	100.063	100.937	198.999
5.4	100.06	100.938	199.003
5.4025	100.056	100.938	199.006
5.405	100.052	100.938	199.01
5.4075	100.048	100.938	199.014
5.41	100.045	100.938	199.017
5.4125	100.041	100.938	199.021
5.415	100.037	100.938	199.024
5.4175	100.034	100.938	199.028
5.42	100.03	100.938	199.031
5.4225	100.026	100.939	199.035
5.425	100.023	100.939	199.039
5.4275	100.019	100.939	199.042
5.43	100.016	100.939	199.046
5.4325	100.012	100.939	199.049
5.435	100.008	100.939	199.053
5.4375	100.005	100.939	199.056
5.44	100.001	100.939	199.06
5.4425	99.9979	100.939	199.063
5.445	99.9944	100.939	199.067
5.4475	99.9909	100.939	199.07
5.45	99.9874	100.939	199.074
5.4525	99.9839	100.939	199.077
5.455	99.9805	100.939	199.081
5.4575	99.977	100.939	199.084
5.46	99.9736	100.939	199.088
5.4625	99.9702	100.938	199.091
5.465	99.9668	100.938	199.095
5.4675	99.9634	100.938	199.098
5.47	99.96	100.938	199.102
5.4725	99.9567	100.938	199.105
5.475	99.9533	100.938	199.109
5.4775	99.95	100.938	199.112
5.48	99.9467	100.938	199.116
5.4825	99.9434	100.938	199.119
5.485	99.9401	100.937	199.122
5.4875	99.9368	100.937	199.126
5.49	99.9335	100.937	199.129
5.4925	99.9303	100.937	199.133
5.495	99.927	100.937	199.136
5.4975	99.9238	100.937	199.14
5.5	99.9206	100.936	199.143
5.5025	99.9174	100.936	199.146
5.505	99.9142	100.936	199.15
5.5075	99.911	100.936	199.153
5.51	99.9078	100.936	199.157
5.5125	99.9047	100.935	199.16
5.515	99.9015	100.935	199.163
5.5175	99.8984	100.935	199.167
5.52	99.8953	100.935	199.17
5.5225	99.8922	100.934	199.174
5.525	99.8891	100.934	199.177
5.5275	99.886	100.934	199.18
5.53	99.8829	100.933	199.184
5.5325	99.8799	100.933	199.187
5.535	99.8769	100.933	199.19
5.5375	99.8738	100.933	199.194
5.54	99.8708	100.932	199.197
5.5425	99.8678	100.932	199.2
5.545	99.8648	100.932	199.204
5.5475	99.8618	100.931	199.207
5.55	99.8589	100.931	199.21
5.5525	99.8559	100.93	199.214
5.555	99.853	100.93	199.217
5.5575	99.8501	100.93	199.22
5.56	99.8471	100.929	199.224
5.5625	99.8442	100.929	199.227
5.565	99.8414	100.929	199.23
5.5675	99.8385	100.928	199.233
5.57	99.8356	100.928	199.237
5.5725	99.8328	100.927	199.24
5.575	99.8299	100.927	199.243
5.5775	99.8271	100.926	199.246
5.58	99.8243	100.926	199.25
5.5825	99.8215	100.926	199.253
5.585	99.8187	100.925	199.256
5.5875	99.8159	100.925	199.259
5.59	99.8131	100.924	199.263
5.5925	99.8104	100.924	199.266
5.595	99.8076	100.923	199.269
5.5975	99.8049	100.923	199.272
5.6	99.8022	100.922	199.276
5.6025	99.7995	100.922	199.279
5.605	99.7968	100.921	199.282
5.6075	99.7941	100.921	199.285
5.61	99.7914	100.92	199.288
5.6125	99.7888	100.92	199.292
5.615	99.7861	100.919	199.295
5.6175	99.7835	100.919	199.298
5.62	99.7809	100.918	199.301
5.6225	99.7783	100.917	199.304
5.625	99.7757	100.917	199.307
5.6275	99.7731	100.916	199.311
5.63	99.7705	100.916	199.314
5.6325	99.7679	100.915	199.317
5.635	99.7654	100.915	199.32
5.6375	99.7629	100.914	199.323
5.64	99.7603	100.913	199.326
5.6425	99.7578	100.913	199.329
5.645	99.7553	100.912	199.332
5.6475	99.7528	100.912	199.336
5.65	99.7503	100.911	199.339
5.6525	99.7479	100.91	199.342
5.655	99.7454	100.91	199.345
5.6575	99.743	100.909	199.348
5.66	99.7405	100.908	199.351
5.6625	99.7381	100.908	199.354
5.665	99.7357	100.907	199.357
5.6675	99.7333	100.906	199.36
5.67	99.7309	100.906	199.363
5.6725	99.7285	100.905	199.366
5.675	99.7262	100.904	199.369
5.6775	99.7238	100.904	199.373
5.68	99.7215	100.903	199.376
5.6825	99.7192	100.902	199.379
5.685	99.7168	100.902	199.382
5.6875	99.7145	100.901	199.385
5.69	99.7122	100.9	199.388
5.6925	99.71	100.899	199.391
5.695	99.7077	100.899	199.394
5.6975	99.7054	100.898	199.397
5.7	99.7032	100.897	199.4
5.7025	99.7009	100.896	199.403
5.705	99.6987	100.896	199.406
5.7075	99.6965	100.895	199.409
5.71	99.6943	100.894	199.412
5.7125	99.6921	100.893	199.415
5.715	99.6899	100.893	199.418
5.7175	99.6877	100.892	199.421
5.72	99.6856	100.891	199.423
5.7225	99.6834	100.89	199.426
5.725	99.6813	100.889	199.429
5.7275	99.6792	100.889	199.432
5.73	99.677	100.888	199.435
5.7325	99.6749	100.887	199.438
5.735	99.6728	100.886	199.441
5.7375	99.6708	100.885	199.444
5.74	99.6687	100.884	199.447
5.7425	99.6666	100.884	199.45
5.745	99.6646	100.883	199.453
5.7475	99.6625	100.882	199.456
5.75	99.6605	100.881	199.458
5.7525	99.6585	100.88	199.461
5.755	99.6565	100.879	199.464
5.7575	99.6545	100.878	199.467
5.76	99.6525	100.878	199.47
5.7625	99.6505	100.877	199.473
5.765	99.6486	100.876	199.476
5.7675	99.6466	100.875	199.478
5.77	99.6447	100.874	199.481
5.7725	99.6427	100.873	199.484
5.775	99.6408	100.872	199.487
5.7775	99.6389	100.871	199.49
5.78	99.637	100.87	199.493
5.7825	99.6351	100.87	199.495
5.785	99.6332	100.869	199.498
5.7875	99.6314	100.868	199.501
5.79	99.6295	100.867	199.504
5.7925	99.6277	100.866	199.507
5.795	99.6258	100.865	199.509
5.7975	99.624	100.864	199.512
5.8	99.6222	100.863	199.515
5.8025	99.6204	100.862	199.518
5.805	99.6186	100.861	199.52
5.8075	99.6168	100.86	199.523
5.81	99.615	100.859	199.526
5.8125	99.6132	100.858	199.529
5.815	99.6115	100.857	199.531
5.8175	99.6097	100.856	199.534
5.82	99.608	100.855	199.537
5.8225	99.6063	100.854	199.54
5.825	99.6046	100.853	199.542
5.8275	99.6029	100.852	199.545
5.83	99.6012	100.851	199.548
5.8325	99.5995	100.85	199.55
5.835	99.5978	100.849	199.553
5.8375	99.5962	100.848	199.556
5.84	99.5945	100.847	199.558
5.8425	99.5929	100.846	199.561
5.845	99.5912	100.845	199.564
5.8475	99.5896	100.844	199.566
5.85	99.588	100.843	199.569
5.8525	99.5864	100.842	199.572
5.855	99.5848	100.841	199.574
5.8575	99.5832	100.84	199.577
5.86	99.5816	100.839	199.58
5.8625	99.5801	100.838	199.582
5.865	99.5785	100.837	199.585
5.8675	99.577	100.836	199.587
5.87	99.5755	100.835	199.59
5.8725	99.5739	100.834	199.593
5.875	99.5724	100.832	199.595
5.8775	99.5709	100.831	199.598
5.88	99.5694	100.83	199.6
5.8825	99.5679	100.829	199.603
5.885	99.5665	100.828	199.605
5.8875	99.565	100.827	199.608
5.89	99.5635	100.826	199.611
5.8925	99.5621	100.825	199.613
5.895	99.5607	100.824	199.616
5.8975	99.5592	100.823	199.618
5.9	99.5578	100.821	199.621
5.9025	99.5564	100.82	199.623
5.905	99.555	100.819	199.626
5.9075	99.5536	100.818	199.628
5.91	99.5522	100.817	199.631
5.9125	99.5509	100.816	199.633
5.915	99.5495	100.815	199.636
5.9175	99.5481	100.814	199.638
5.92	99.5468	100.812	199.641
5.9225	99.5455	100.811	199.643
5.925	99.5441	100.81	199.646
5.9275	99.5428	100.809	199.648
5.93	99.5415	100.808	199.651
5.9325	99.5402	100.807	199.653
5.935	99.5389	100.806	199.656
5.9375	99.5377	100.804	199.658
5.94	99.5364	100.803	199.66
5.9425	99.5351	100.802	199.663
5.945	99.5339	100.801	199.665
5.9475	99.5326	100.8	199.668
5.95	99.5314	100.799	199.67
5.9525	99.5302	100.797	199.672
5.955	99.529	100.796	199.675
5.9575	99.5278	100.795	199.677
5.96	99.5266	100.794	199.68
5.9625	99.5254	100.793	199.682
5.965	99.5242	100.791	199.684
5.9675	99.523	100.79	199.687
5.97	99.5219	100.789	199.689
5.9725	99.5207	100.788	199.692
5.975	99.5196	100.787	199.694
5.9775	99.5184	100.785	199.696
5.98	99.5173	100.784	199.699
5.9825	99.5162	100.783	199.701
5.985	99.5151	100.782	199.703
5.9875	99.514	100.78	199.706
5.99	99.5129	100.779	199.708
5.9925	99.5118	100.778	199.71
5.995	99.5108	100.777	199.712
5.9975	99.5097	100.776	199.715
6	99.5086	100.774	199.717
6.0025	99.5076	100.773	199.719
6.005	99.5065	100.772	199.722
6.0075	99.5055	100.771	199.724
6.01	99.5045	100.769	199.726
6.0125	99.5035	100.768	199.728
6.015	99.5025	100.767	199.731
6.0175	99.5015	100.766	199.733
6.02	99.5005	100.764	199.735
6.0225	99.4995	100.763	199.737
6.025	99.4985	100.762	199.74
6.0275	99.4976	100.761	199.742
6.03	99.4966	100.759	199.744
6.0325	99.4957	100.758	199.746
6.035	99.4947	100.757	199.749
6.0375	99.4938	100.755	199.751
6.04	99.4929	100.754	199.753
6.0425	99.492	100.753	199.755
6.045	99.4911	100.752	199.757
6.0475	99.4902	100.75	199.759
6.05	99.4893	100.749	199.762
6.0525	99.4884	100.748	199.764
6.055	99.4875	100.746	199.766
6.0575	99.4867	100.745	199.768
6.06	99.4858	100.744	199.77
6.0625	99.485	100.743	199.772
6.065	99.4841	100.741	199.775
6.0675	99.4833	100.74	199.777
6.07	99.4825	100.739	199.779
6.0725	99.4817	100.737	199.781
6.075	99.4809	100.736	199.783
6.0775	99.4801	100.735	199.785
6.08	99.4793	100.733	199.787
6.0825	99.4785	100.732	199.789
6.085	99.4777	100.731	199.791
6.0875	99.4769	100.73	199.794
6.09	99.4762	100.728	199.796
6.0925	99.4754	100.727	199.798
6.095	99.4747	100.726	199.8
6.0975	99.4739	100.724	199.802
6.1	99.4732	100.723	199.804
6.1025	99.4725	100.722	199.806
6.105	99.4718	100.72	199.808
6.1075	99.4711	100.719	199.81
6.11	99.4704	100.718	199.812
6.1125	99.4697	100.716	199.814
6.115	99.469	100.715	199.816
6.1175	99.4683	100.714	199.818
6.12	99.4676	100.712	199.82
6.1225	99.467	100.711	199.822
6.125	99.4663	100.71	199.824
6.1275	99.4657	100.708	199.826
6.13	99.465	100.707	199.828
6.1325	99.4644	100.706	199.83
6.135	99.4638	100.704	199.832
6.1375	99.4632	100.703	199.834
6.14	99.4626	100.701	199.836
6.1425	99.462	100.7	199.838
6.145	99.4614	100.699	199.84
6.1475	99.4608	100.697	199.842
6.15	99.4602	100.696	199.844
6.1525	99.4596	100.695	199.846
6.155	99.4591	100.693	199.848
6.1575	99.4585	100.692	199.85
6.16	99.4579	100.691	199.851
6.1625	99.4574	100.689	199.853
6.165	99.4569	100.688	199.855
6.1675	99.4563	100.686	199.857
6.17	99.4558	100.685	199.859
6.1725	99.4553	100.684	199.861
6.175	99.4548	100.682	199.863
6.1775	99.4543	100.681	199.865
6.18	99.4538	100.68	199.867
6.1825	99.4533	100.678	199.868
6.185	99.4528	100.677	199.87
6.1875	99.4523	100.676	199.872
6.19	99.4519	100.674	199.874
6.1925	99.4514	100.673	199.876
6.195	99.451	100.671	199.878
6.1975	99.4505	100.67	199.879
6.2	99.4501	100.669	199.881
6.2025	99.4497	100.667	199.883
6.205	99.4492	100.666	199.885
6.2075	99.4488	100.664	199.887
6.21	99.4484	100.663	199.889
6.2125	99.448	100.662	199.89
6.215	99.4476	100.66	199.892
6.2175	99.4472	100.659	199.894
6.22	99.4468	100.657	199.896
6.2225	99.4464	100.656	199.897
6.225	99.4461	100.655	199.899
6.2275	99.4457	100.653	199.901
6.23	99.4453	100.652	199.903
6.2325	99.445	100.651	199.904
6.235	99.4446	100.649	199.906
6.2375	99.4443	100.648	199.908
6.24	99.444	100.646	199.91
6.2425	99.4436	100.645	199.911
6.245	99.4433	100.644	199.913
6.2475	99.443	100.642	199.915
6.25	99.4427	100.641	199.917
6.2525	99.4424	100.639	199.918
6.255	99.4421	100.638	199.92
6.2575	99.4418	100.637	199.922
6.26	99.4415	100.635	199.923
6.2625	99.4413	100.634	199.925
6.265	99.441	100.632	199.927
6.2675	99.4407	100.631	199.928
6.27	99.4405	100.629	199.93
6.2725	99.4402	100.628	199.932
6.275	99.44	100.627	199.933
6.2775	99.4397	100.625	199.935
6.28	99.4395	100.624	199.937
6.2825	99.4393	100.622	199.938
6.285	99.4391	100.621	199.94
6.2875	99.4388	100.62	199.942
6.29	99.4386	100.618	199.943
6.2925	99.4384	100.617	199.945
6.295	99.4382	100.615	199.946
6.2975	99.4381	100.614	199.948
6.3	99.4379	100.613	199.95
6.3025	99.4377	100.611	199.951
6.305	99.4375	100.61	199.953
6.3075	99.4374	100.608	199.954
6.31	99.4372	100.607	199.956
6.3125	99.437	100.605	199.957
6.315	99.4369	100.604	199.959
6.3175	99.4368	100.603	199.961
6.32	99.4366	100.601	199.962
6.3225	99.4365	100.6	199.964
6.325	99.4364	100.598	199.965
6.3275	99.4362	100.597	199.967
6.33	99.4361	100.596	199.968
6.3325	99.436	100.594	199.97
6.335	99.4359	100.593	199.971
6.3375	99.4358	100.591	199.973
6.34	99.4357	100.59	199.974
6.3425	99.4356	100.588	199.976
6.345	99.4356	100.587	199.977
6.3475	99.4355	100.586	199.979
6.35	99.4354	100.584	199.98
6.3525	99.4354	100.583	199.982
6.355	99.4353	100.581	199.983
6.3575	99.4353	100.58	199.985
6.36	99.4352	100.579	199.986
6.3625	99.4352	100.577	199.988
6.365	99.4351	100.576	199.989
6.3675	99.4351	100.574	199.991
6.37	99.4351	100.573	199.992
6.3725	99.4351	100.571	199.994
6.375	99.435	100.57	199.995
6.3775	99.435	100.569	199.996
6.38	99.435	100.567	199.998
6.3825	99.435	100.566	199.999
6.385	99.435	100.564	200.001
6.3875	99.4351	100.563	200.002
6.39	99.4351	100.561	200.003
6.3925	99.4351	100.56	200.005
6.395	99.4351	100.559	200.006
6.3975	99.4352	100.557	200.008
6.4	99.4352	100.556	200.009
6.4025	99.4352	100.554	200.01
6.405	99.4353	100.553	200.012
6.4075	99.4353	100.552	200.013
6.41	99.4354	100.55	200.014
6.4125	99.4355	100.549	200.016
6.415	99.4355	100.547	200.017
6.4175	99.4356	100.546	200.019
6.42	99.4357	100.544	200.02
6.4225	99.4358	100.543	200.021
6.425	99.4359	100.542	200.023
6.4275	99.436	100.54	200.024
6.43	99.4361	100.539	200.025
6.4325	99.4362	100.537	200.026
6.435	99.4363	100.536	200.028
6.4375	99.4364	100.535	200.029
6.44	99.4365	100.533	200.03
6.4425	99.4366	100.532	200.032
6.445	99.4368	100.53	200.033
6.4475	99.4369	100.529	200.034
6.45	99.437	100.527	200.036
6.4525	99.4372	100.526	200.037
6.455	99.4373	100.525	200.038
6.4575	99.4375	100.523	200.039
6.46	99.4376	100.522	200.041
6.4625	99.4378	100.52	200.042
6.465	99.438	100.519	200.043
6.4675	99.4381	100.518	200.044
6.47	99.4383	100.516	200.046
6.4725	99.4385	100.515	200.047
6.475	99.4387	100.513	200.048
6.4775	99.4389	100.512	200.049
6.48	99.4391	100.511	200.05
6.4825	99.4393	100.509	200.052
6.485	99.4395	100.508	200.053
6.4875	99.4397	100.506	200.054
6.49	99.4399	100.505	200.055
6.4925	99.4401	100.503	200.056
6.495	99.4403	100.502	200.058
6.4975	99.4405	100.501	200.059
6.5	99.4408	100.499	200.06
6.5025	99.441	100.498	200.061
6.505	99.4412	100.496	200.062
6.5075	99.4415	100.495	200.063
6.51	99.4417	100.494	200.065
6.5125	99.442	100.492	200.066
6.515	99.4422	100.491	200.067
6.5175	99.4425	100.489	200.068
6.52	99.4428	100.488	200.069
6.5225	99.443	100.487	200.07
6.525	99.4433	100.485	200.071
6.5275	99.4436	100.484	200.073
6.53	99.4439	100.482	200.074
6.5325	99.4442	100.481	200.075
6.535	99.4444	100.48	200.076
6.5375	99.4447	100.478	200.077
6.54	99.445	100.477	200.078
6.5425	99.4453	100.475	200.079
6.545	99.4456	100.474	200.08
6.5475	99.4459	100.473	200.081
6.55	99.4463	100.471	200.082
6.5525	99.4466	100.47	200.084
6.555	99.4469	100.469	200.085
6.5575	99.4472	100.467	200.086
6.56	99.4476	100.466	200.087
6.5625	99.4479	100.464	200.088
6.565	99.4482	100.463	200.089
6.5675	99.4486	100.462	200.09
6.57	99.4489	100.46	200.091
6.5725	99.4493	100.459	200.092
6.575	99.4496	100.457	200.093
6.5775	99.45	100.456	200.094
6.58	99.4503	100.455	200.095
6.5825	99.4507	100.453	200.096
6.585	99.4511	100.452	200.097
6.5875	99.4514	100.451	200.098
6.59	99.4518	100.449	200.099
6.5925	99.4522	100.448	200.1
6.595	99.4526	100.446	200.101
6.5975	99.453	100.445	200.102
6.6	99.4534	100.444	200.103
6.6025	99.4537	100.442	200.104
6.605	99.4541	100.441	200.105
6.6075	99.4545	100.44	200.106
6.61	99.455	100.438	200.107
6.6125	99.4554	100.437	200.108
6.615	99.4558	100.435	200.109
6.6175	99.4562	100.434	200.11
6.62	99.4566	100.433	200.111
6.6225	99.457	100.431	200.112
6.625	99.4575	100.43	200.113
6.6275	99.4579	100.429	200.114
6.63	99.4583	100.427	200.114
6.6325	99.4588	100.426	200.115
6.635	99.4592	100.425	200.116
6.6375	99.4596	100.423	200.117
6.64	99.4601	100.422	200.118
6.6425	99.4605	100.42	200.119
6.645	99.461	100.419	200.12
6.6475	99.4614	100.418	200.121
6.65	99.4619	100.416	200.122
6.6525	99.4624	100.415	200.123
6.655	99.4628	100.414	200.123
6.6575	99.4633	100.412	200.124
6.66	99.4638	100.411	200.125
6.6625	99.4643	100.41	200.126
6.665	99.4647	100.408	200.127
6.6675	99.4652	100.407	200.128
6.67	99.4657	100.406	200.129
6.6725	99.4662	100.404	200.13
6.675	99.4667	100.403	200.13
6.6775	99.4672	100.402	200.131
6.68	99.4677	100.4	200.132
6.6825	99.4682	100.399	200.133
6.685	99.4687	100.398	200.134
6.6875	99.4692	100.396	200.135
6.69	99.4697	100.395	200.135
6.6925	99.4702	100.394	200.136
6.695	99.4707	100.392	200.137
6.6975	99.4713	100.391	200.138
6.7	99.4718	100.39	200.139
6.7025	99.4723	100.388	200.139
6.705	99.4728	100.387	200.14
6.7075	99.4734	100.386	200.141
6.71	99.4739	100.384	200.142
6.7125	99.4744	100.383	200.143
6.715	99.475	100.382	200.143
6.7175	99.4755	100.38	200.144
6.72	99.4761	100.379	200.145
6.7225	99.4766	100.378	200.146
6.725	99.4772	100.376	200.146
6.7275	99.4777	100.375	200.147
6.73	99.4783	100.374	200.148
6.7325	99.4789	100.373	200.149
6.735	99.4794	100.371	200.149
6.7375	99.48	100.37	200.15
6.74	99.4806	100.369	200.151
6.7425	99.4811	100.367	200.152
6.745	99.4817	100.366	200.152
6.7475	99.4823	100.365	200.153
6.75	99.4829	100.363	200.154
6.7525	99.4834	100.362	200.154
6.755	99.484	100.361	200.155
6.7575	99.4846	100.36	200.156
6.76	99.4852	100.358	200.157
6.7625	99.4858	100.357	200.157
6.765	99.4864	100.356	200.158
6.7675	99.487	100.354	200.159
6.77	99.4876	100.353	200.159
6.7725	99.4882	100.352	200.16
6.775	99.4888	100.35	200.161
6.7775	99.4894	100.349	200.161
6.78	99.49	100.348	200.162
6.7825	99.4906	100.347	200.163
6.785	99.4913	100.345	200.163
6.7875	99.4919	100.344	200.164
6.79	99.4925	100.343	200.165
6.7925	99.4931	100.342	200.165
6.795	99.4937	100.34	200.166
6.7975	99.4944	100.339	200.167
6.8	99.495	100.338	200.167
6.8025	99.4956	100.336	200.168
6.805	99.4963	100.335	200.169
6.8075	99.4969	100.334	200.169
6.81	99.4975	100.333	200.17
6.8125	99.4982	100.331	200.17
6.815	99.4988	100.33	200.171
6.8175	99.4995	100.329	200.172
6.82	99.5001	100.328	200.172
6.8225	99.5008	100.326	200.173
6.825	99.5014	100.325	200.173
6.8275	99.5021	100.324	200.174
6.83	99.5027	100.323	200.175
6.8325	99.5034	100.321	200.175
6.835	99.5041	100.32	200.176
6.8375	99.5047	100.319	200.176
6.84	99.5054	100.318	200.177
6.8425	99.5061	100.316	200.177
6.845	99.5067	100.315	200.178
6.8475	99.5074	100.314	200.179
6.85	99.5081	100.313	200.179
6.8525	99.5088	100.312	200.18
6.855	99.5094	100.31	200.18
6.8575	99.5101	100.309	200.181
6.86	99.5108	100.308	200.181
6.8625	99.5115	100.307	200.182
6.865	99.5122	100.305	200.182
6.8675	99.5129	100.304	200.183
6.87	99.5136	100.303	200.184
6.8725	99.5142	100.302	200.184
6.875	99.5149	100.3	200.185
6.8775	99.5156	100.299	200.185
6.88	99.5163	100.298	200.186
6.8825	99.517	100.297	200.186
6.885	99.5177	100.296	200.187
6.8875	99.5184	100.294	200.187
6.89	99.5191	100.293	200.188
6.8925	99.5199	100.292	200.188
6.895	99.5206	100.291	200.189
6.8975	99.5213	100.29	200.189
6.9	99.522	100.288	200.19
6.9025	99.5227	100.287	200.19
6.905	99.5234	100.286	200.191
6.9075	99.5241	100.285	200.191
6.91	99.5249	100.284	200.192
6.9125	99.5256	100.282	200.192
6.915	99.5263	100.281	200.192
6.9175	99.527	100.28	200.193
6.92	99.5278	100.279	200.193
6.9225	99.5285	100.278	200.194
6.925	99.5292	100.277	200.194
6.9275	99.53	100.275	200.195
6.93	99.5307	100.274	200.195
6.9325	99.5314	100.273	200.196
6.935	99.5322	100.272	200.196
6.9375	99.5329	100.271	200.196
6.94	99.5336	100.269	200.197
6.9425	99.5344	100.268	200.197
6.945	99.5351	100.267	200.198
6.9475	99.5359	100.266	200.198
6.95	99.5366	100.265	200.199
6.9525	99.5374	100.264	200.199
6.955	99.5381	100.262	200.199
6.9575	99.5389	100.261	200.2
6.96	99.5396	100.26	200.2
6.9625	99.5404	100.259	200.201
6.965	99.5411	100.258	200.201
6.9675	99.5419	100.257	200.201
6.97	99.5427	100.256	200.202
6.9725	99.5434	100.254	200.202
6.975	99.5442	100.253	200.203
6.9775	99.5449	100.252	200.203
6.98	99.5457	100.251	200.203
6.9825	99.5465	100.25	200.204
6.985	99.5472	100.249	200.204
6.9875	99.548	100.248	200.204
6.99	99.5488	100.246	200.205
6.9925	99.5495	100.245	200.205
6.995	99.5503	100.244	200.205
6.9975	99.5511	100.243	200.206
7	99.5519	100.242	200.206
7.0025	99.5526	100.241	200.207
7.005	99.5534	100.24	200.207
7.0075	99.5542	100.239	200.207
7.01	99.555	100.237	200.208
7.0125	99.5558	100.236	200.208
7.015	99.5565	100.235	200.208
7.0175	99.5573	100.234	200.209
7.02	99.5581	100.233	200.209
7.0225	99.5589	100.232	200.209
7.025	99.5597	100.231	200.209
7.0275	99.5605	100.23	200.21
7.03	99.5613	100.229	200.21
7.0325	99.5621	100.228	200.21
7.035	99.5628	100.226	200.211
7.0375	99.5636	100.225	200.211
7.04	99.5644	100.224	200.211
7.0425	99.5652	100.223	200.212
7.045	99.566	100.222	200.212
7.0475	99.5668	100.221	200.212
7.05	99.5676	100.22	200.212
7.0525	99.5684	100.219	200.213
7.055	99.5692	100.218	200.213
7.0575	99.57	100.217	200.213
7.06	99.5708	100.216	200.214
7.0625	99.5716	100.215	200.214
7.065	99.5724	100.213	200.214
7.0675	99.5732	100.212	200.214
7.07	99.574	100.211	200.215
7.0725	99.5749	100.21	200.215
7.075	99.5757	100.209	200.215
7.0775	99.5765	100.208	200.215
7.08	99.5773	100.207	200.216
7.0825	99.5781	100.206	200.216
7.085	99.5789	100.205	200.216
7.0875	99.5797	100.204	200.216
7.09	99.5805	100.203	200.217
7.0925	99.5814	100.202	200.217
7.095	99.5822	100.201	200.217
7.0975	99.583	100.2	200.217
7.1	99.5838	100.199	200.218
7.1025	99.5846	100.198	200.218
7.105	99.5854	100.197	200.218
7.1075	99.5863	100.196	200.218
7.11	99.5871	100.194	200.218
7.1125	99.5879	100.193	200.219
7.115	99.5887	100.192	200.219
7.1175	99.5895	100.191	200.219
7.12	99.5904	100.19	200.219
7.1225	99.5912	100.189	200.219
7.125	99.592	100.188	200.22
7.1275	99.5928	100.187	200.22
7.13	99.5937	100.186	200.22
7.1325	99.5945	100.185	200.22
7.135	99.5953	100.184	200.22
7.1375	99.5962	100.183	200.221
7.14	99.597	100.182	200.221
7.1425	99.5978	100.181	200.221
7.145	99.5986	100.18	200.221
7.1475	99.5995	100.179	200.221
7.15	99.6003	100.178	200.221
7.1525	99.6011	100.177	200.222
7.155	99.602	100.176	200.222
7.1575	99.6028	100.175	200.222
7.16	99.6036	100.174	200.222
7.1625	99.6045	100.173	200.222
7.165	99.6053	100.172	200.222
7.1675	99.6062	100.171	200.223
7.17	99.607	100.17	200.223
7.1725	99.6078	100.169	200.223
7.175	99.6087	100.168	200.223
7.1775	99.6095	100.167	200.223
7.18	99.6103	100.166	200.223
7.1825	99.6112	100.165	200.223
7.185	99.612	100.164	200.224
7.1875	99.6129	100.163	200.224
7.19	99.6137	100.162	200.224
7.1925	99.6145	100.161	200.224
7.195	99.6154	100.161	200.224
7.1975	99.6162	100.16	200.224
7.2	99.6171	100.159	200.224
7.2025	99.6179	100.158	200.224
7.205	99.6188	100.157	200.225
7.2075	99.6196	100.156	200.225
7.21	99.6204	100.155	200.225
7.2125	99.6213	100.154	200.225
7.215	99.6221	100.153	200.225
7.2175	99.623	100.152	200.225
7.22	99.6238	100.151	200.225
7.2225	99.6247	100.15	200.225
7.225	99.6255	100.149	200.225
7.2275	99.6264	100.148	200.225
7.23	99.6272	100.147	200.226
7.2325	99.6281	100.146	200.226
7.235	99.6289	100.145	200.226
7.2375	99.6298	100.144	200.226
7.24	99.6306	100.144	200.226
7.2425	99.6314	100.143	200.226
7.245	99.6323	100.142	200.226
7.2475	99.6331	100.141	200.226
7.25	99.634	100.14	200.226
7.2525	99.6348	100.139	200.226
7.255	99.6357	100.138	200.226
7.2575	99.6365	100.137	200.226
7.26	99.6374	100.136	200.226
7.2625	99.6382	100.135	200.226
7.265	99.6391	100.134	200.227
7.2675	99.6399	100.133	200.227
7.27	99.6408	100.133	200.227
7.2725	99.6416	100.132	200.227
7.275	99.6425	100.131	200.227
7.2775	99.6434	100.13	200.227
7.28	99.6442	100.129	200.227
7.2825	99.6451	100.128	200.227
7.285	99.6459	100.127	200.227
7.2875	99.6468	100.126	200.227
7.29	99.6476	100.125	200.227
7.2925	99.6485	100.125	200.227
7.295	99.6493	100.124	200.227
7.2975	99.6502	100.123	200.227
7.3	99.651	100.122	200.227
7.3025	99.6519	100.121	200.227
7.305	99.6527	100.12	200.227
7.3075	99.6536	100.119	200.227
7.31	99.6544	100.118	200.227
7.3125	99.6553	100.118	200.227
7.315	99.6561	100.117	200.227
7.3175	99.657	100.116	200.227
7.32	99.6578	100.115	200.227
7.3225	99.6587	100.114	200.227
7.325	99.6595	100.113	200.227
7.3275	99.6604	100.112	200.227
7.33	99.6613	100.112	200.227
7.3325	99.6621	100.111	200.227
7.335	99.663	100.11	200.227
7.3375	99.6638	100.109	200.227
7.34	99.6647	100.108	200.227
7.3425	99.6655	100.107	200.227
7.345	99.6664	100.107	200.227
7.3475	99.6672	100.106	200.227
7.35	99.6681	100.105	200.227
7.3525	99.6689	100.104	200.227
7.355	99.6698	100.103	200.227
7.3575	99.6706	100.102	200.227
7.36	99.6715	100.102	200.227
7.3625	99.6723	100.101	200.227
7.365	99.6732	100.1	200.227
7.3675	99.674	100.099	200.227
7.37	99.6749	100.098	200.227
7.3725	99.6757	100.098	200.227
7.375	99.6766	100.097	200.227
7.3775	99.6774	100.096	200.227
7.38	99.6783	100.095	200.227
7.3825	99.6791	100.094	200.227
7.385	99.68	100.093	200.227
7.3875	99.6808	100.093	200.226
7.39	99.6817	100.092	200.226
7.3925	99.6825	100.091	200.226
7.395	99.6834	100.09	200.226
7.3975	99.6842	100.09	200.226
7.4	99.6851	100.089	200.226
7.4025	99.6859	100.088	200.226
7.405	99.6868	100.087	200.226
7.4075	99.6876	100.086	200.226
7.41	99.6885	100.086	200.226
7.4125	99.6893	100.085	200.226
7.415	99.6902	100.084	200.226
7.4175	99.691	100.083	200.226
7.42	99.6919	100.082	200.226
7.4225	99.6927	100.082	200.226
7.425	99.6936	100.081	200.225
7.4275	99.6944	100.08	200.225
7.43	99.6953	100.079	200.225
7.4325	99.6961	100.079	200.225
7.435	99.6969	100.078	200.225
7.4375	99.6978	100.077	200.225
7.44	99.6986	100.076	200.225
7.4425	99.6995	100.076	200.225
7.445	99.7003	100.075	200.225
7.4475	99.7012	100.074	200.225
7.45	99.702	100.073	200.225
7.4525	99.7029	100.073	200.225
7.455	99.7037	100.072	200.224
7.4575	99.7045	100.071	200.224
7.46	99.7054	100.07	200.224
7.4625	99.7062	100.07	200.224
7.465	99.7071	100.069	200.224
7.4675	99.7079	100.068	200.224
7.47	99.7087	100.067	200.224
7.4725	99.7096	100.067	200.224
7.475	99.7104	100.066	200.224
7.4775	99.7113	100.065	200.223
7.48	99.7121	100.065	200.223
7.4825	99.7129	100.064	200.223
7.485	99.7138	100.063	200.223
7.4875	99.7146	100.062	200.223
7.49	99.7154	100.062	200.223
7.4925	99.7163	100.061	200.223
7.495	99.7171	100.06	200.223
7.4975	99.7179	100.06	200.222
7.5	99.7188	100.059	200.222
7.5025	99.7196	100.058	200.222
7.505	99.7205	100.057	200.222
7.5075	99.7213	100.057	200.222
7.51	99.7221	100.056	200.222
7.5125	99.7229	100.055	200.222
7.515	99.7238	100.055	200.222
7.5175	99.7246	100.054	200.221
7.52	99.7254	100.053	200.221
7.5225	99.7263	100.053	200.221
7.525	99.7271	100.052	200.221
7.5275	99.7279	100.051	200.221
7.53	99.7288	100.051	200.221
7.5325	99.7296	100.05	200.22
7.535	99.7304	100.049	200.22
7.5375	99.7312	100.049	200.22
7.54	99.7321	100.048	200.22
7.5425	99.7329	100.047	200.22
7.545	99.7337	100.047	200.22
7.5475	99.7345	100.046	200.22
7.55	99.7354	100.045	200.219
7.5525	99.7362	100.045	200.219
7.555	99.737	100.044	200.219
7.5575	99.7378	100.043	200.219
7.56	99.7386	100.043	200.219
7.5625	99.7395	100.042	200.219
7.565	99.7403	100.041	200.218
7.5675	99.7411	100.041	200.218
7.57	99.7419	100.04	200.218
7.5725	99.7427	100.039	200.218
7.575	99.7436	100.039	200.218
7.5775	99.7444	100.038	200.218
7.58	99.7452	100.037	200.217
7.5825	99.746	100.037	200.217
7.585	99.7468	100.036	200.217
7.5875	99.7476	100.036	200.217
7.59	99.7484	100.035	200.217
7.5925	99.7493	100.034	200.216
7.595	99.7501	100.034	200.216
7.5975	99.7509	100.033	200.216
7.6	99.7517	100.032	200.216
7.6025	99.7525	100.032	200.216
7.605	99.7533	100.031	200.216
7.6075	99.7541	100.031	200.215
7.61	99.7549	100.03	200.215
7.6125	99.7557	100.029	200.215
7.615	99.7565	100.029	200.215
7.6175	99.7573	100.028	200.215
7.62	99.7581	100.028	200.214
7.6225	99.7589	100.027	200.214
7.625	99.7598	100.026	200.214
7.6275	99.7606	100.026	200.214
7.63	99.7614	100.025	200.214
7.6325	99.7622	100.025	200.213
7.635	99.763	100.024	200.213
7.6375	99.7638	100.023	200.213
7.64	99.7646	100.023	200.213
7.6425	99.7654	100.022	200.212
7.645	99.7661	100.022	200.212
7.6475	99.7669	100.021	200.212
7.65	99.7677	100.02	200.212
7.6525	99.7685	100.02	200.212
7.655	99.7693	100.019	200.211
7.6575	99.7701	100.019	200.211
7.66	99.7709	100.018	200.211
7.6625	99.7717	100.018	200.211
7.665	99.7725	100.017	200.211
7.6675	99.7733	100.016	200.21
7.67	99.7741	100.016	200.21
7.6725	99.7749	100.015	200.21
7.675	99.7756	100.015	200.21
7.6775	99.7764	100.014	200.209
7.68	99.7772	100.014	200.209
7.6825	99.778	100.013	200.209
7.685	99.7788	100.012	200.209
7.6875	99.7796	100.012	200.209
7.69	99.7803	100.011	200.208
7.6925	99.7811	100.011	200.208
7.695	99.7819	100.01	200.208
7.6975	99.7827	100.01	200.208
7.7	99.7835	100.009	200.207
7.7025	99.7842	100.009	200.207
7.705	99.785	100.008	200.207
7.7075	99.7858	100.008	200.207
7.71	99.7866	100.007	200.206
7.7125	99.7873	100.006	200.206
7.715	99.7881	100.006	200.206
7.7175	99.7889	100.005	200.206
7.72	99.7897	100.005	200.205
7.7225	99.7904	100.004	200.205
7.725	99.7912	100.004	200.205
7.7275	99.792	100.003	200.205
7.73	99.7927	100.003	200.204
7.7325	99.7935	100.002	200.204
7.735	99.7943	100.002	200.204
7.7375	99.795	100.001	200.204
7.74	99.7958	100.001	200.203
7.7425	99.7966	100	200.203
7.745	99.7973	99.9997	200.203
7.7475	99.7981	99.9992	200.203
7.75	99.7988	99.9987	200.202
7.7525	99.7996	99.9982	200.202
7.755	99.8003	99.9977	200.202
7.7575	99.8011	99.9972	200.202
7.76	99.8019	99.9967	200.201
7.7625	99.8026	99.9962	200.201
7.765	99.8034	99.9958	200.201
7.7675	99.8041	99.9953	200.201
7.77	99.8049	99.9948	200.2
7.7725	99.8056	99.9943	200.2
7.775	99.8064	99.9938	200.2
7.7775	99.8071	99.9933	200.2
7.78	99.8079	99.9928	200.199
7.7825	99.8086	99.9924	200.199
7.785	99.8094	99.9919	200.199
7.7875	99.8101	99.9914	200.198
7.79	99.8109	99.9909	200.198
7.7925	99.8116	99.9905	200.198
7.795	99.8123	99.99	200.198
7.7975	99.8131	99.9895	200.197
7.8	99.8138	99.9891	200.197
7.8025	99.8146	99.9886	200.197
7.805	99.8153	99.9881	200.197
7.8075	99.816	99.9877	200.196
7.81	99.8168	99.9872	200.196
7.8125	99.8175	99.9868	200.196
7.815	99.8182	99.9863	200.195
7.8175	99.819	99.9858	200.195
7.82	99.8197	99.9854	200.195
7.8225	99.8204	99.9849	200.195
7.825	99.8212	99.9845	200.194
7.8275	99.8219	99.984	200.194
7.83	99.8226	99.9836	200.194
7.8325	99.8233	99.9832	200.193
7.835	99.8241	99.9827	200.193
7.8375	99.8248	99.9823	200.193
7.84	99.8255	99.9818	200.193
7.8425	99.8262	99.9814	200.192
7.845	99.827	99.981	200.192
7.8475	99.8277	99.9805	200.192
7.85	99.8284	99.9801	200.191
7.8525	99.8291	99.9797	200.191
7.855	99.8298	99.9793	200.191
7.8575	99.8305	99.9788	200.191
7.86	99.8313	99.9784	200.19
7.8625	99.832	99.978	200.19
7.865	99.8327	99.9776	200.19
7.8675	99.8334	99.9772	200.189
7.87	99.8341	99.9767	200.189
7.8725	99.8348	99.9763	200.189
7.875	99.8355	99.9759	200.189
7.8775	99.8362	99.9755	200.188
7.88	99.8369	99.9751	200.188
7.8825	99.8376	99.9747	200.188
7.885	99.8383	99.9743	200.187
7.8875	99.839	99.9739	200.187
7.89	99.8397	99.9735	200.187
7.8925	99.8404	99.9731	200.186
7.895	99.8411	99.9727	200.186
7.8975	99.8418	99.9723	200.186
7.9	99.8425	99.9719	200.186
7.9025	99.8432	99.9715	200.185
7.905	99.8439	99.9711	200.185
7.9075	99.8446	99.9707	200.185
7.91	99.8453	99.9703	200.184
7.9125	99.846	99.9699	200.184
7.915	99.8467	99.9696	200.184
7.9175	99.8474	99.9692	200.183
7.92	99.8481	99.9688	200.183
7.9225	99.8487	99.9684	200.183
7.925	99.8494	99.968	200.183
7.9275	99.8501	99.9677	200.182
7.93	99.8508	99.9673	200.182
7.9325	99.8515	99.9669	200.182
7.935	99.8522	99.9666	200.181
7.9375	99.8528	99.9662	200.181
7.94	99.8535	99.9658	200.181
7.9425	99.8542	99.9655	200.18
7.945	99.8549	99.9651	200.18
7.9475	99.8555	99.9647	200.18
7.95	99.8562	99.9644	200.179
7.9525	99.8569	99.964	200.179
7.955	99.8576	99.9637	200.179
7.9575	99.8582	99.9633	200.178
7.96	99.8589	99.9629	200.178
7.9625	99.8596	99.9626	200.178
7.965	99.8602	99.9622	200.178
7.9675	99.8609	99.9619	200.177
7.97	99.8616	99.9615	200.177
7.9725	99.8622	99.9612	200.177
7.975	99.8629	99.9609	200.176
7.9775	99.8635	99.9605	200.176
7.98	99.8642	99.9602	200.176
7.9825	99.8649	99.9598	200.175
7.985	99.8655	99.9595	200.175
7.9875	99.8662	99.9592	200.175
7.99	99.8668	99.9588	200.174
7.9925	99.8675	99.9585	200.174
7.995	99.8681	99.9582	200.174
7.9975	99.8688	99.9578	200.173
8	99.8694	99.9575	200.173
8.0025	99.8701	99.9572	200.173
8.005	99.8707	99.9569	200.172
8.0075	99.8714	99.9565	200.172
8.01	99.872	99.9562	200.172
8.0125	99.8727	99.9559	200.171
8.015	99.8733	99.9556	200.171
8.0175	99.8739	99.9553	200.171
8.02	99.8746	99.955	200.17
8.0225	99.8752	99.9546	200.17
8.025	99.8759	99.9543	200.17
8.0275	99.8765	99.954	200.169
8.03	99.8771	99.9537	200.169
8.0325	99.8778	99.9534	200.169
8.035	99.8784	99.9531	200.169
8.0375	99.879	99.9528	200.168
8.04	99.8797	99.9525	200.168
8.0425	99.8803	99.9522	200.168
8.045	99.8809	99.9519	200.167
8.0475	99.8815	99.9516	200.167
8.05	99.8822	99.9513	200.167
8.0525	99.8828	99.951	200.166
8.055	99.8834	99.9507	200.166
8.0575	99.884	99.9504	200.166
8.06	99.8847	99.9501	200.165
8.0625	99.8853	99.9499	200.165
8.065	99.8859	99.9496	200.165
8.0675	99.8865	99.9493	200.164
8.07	99.8871	99.949	200.164
8.0725	99.8877	99.9487	200.164
8.075	99.8883	99.9484	200.163
8.0775	99.889	99.9482	200.163
8.08	99.8896	99.9479	200.163
8.0825	99.8902	99.9476	200.162
8.085	99.8908	99.9473	200.162
8.0875	99.8914	99.9471	200.162
8.09	99.892	99.9468	200.161
8.0925	99.8926	99.9465	200.161
8.095	99.8932	99.9463	200.161
8.0975	99.8938	99.946	200.16
8.1	99.8944	99.9457	200.16
8.1025	99.895	99.9455	200.16
8.105	99.8956	99.9452	200.159
8.1075	99.8962	99.9449	200.159
8.11	99.8968	99.9447	200.159
8.1125	99.8974	99.9444	200.158
8.115	99.898	99.9442	200.158
8.1175	99.8986	99.9439	200.158
8.12	99.8992	99.9437	200.157
8.1225	99.8997	99.9434	200.157
8.125	99.9003	99.9432	200.157
8.1275	99.9009	99.9429	200.156
8.13	99.9015	99.9427	200.156
8.1325	99.9021	99.9424	200.155
8.135	99.9027	99.9422	200.155
8.1375	99.9033	99.9419	200.155
8.14	99.9038	99.9417	200.154
8.1425	99.9044	99.9415	200.154
8.145	99.905	99.9412	200.154
8.1475	99.9056	99.941	200.153
8.15	99.9061	99.9407	200.153
8.1525	99.9067	99.9405	200.153
8.155	99.9073	99.9403	200.152
8.1575	99.9079	99.94	200.152
8.16	99.9084	99.9398	200.152
8.1625	99.909	99.9396	200.151
8.165	99.9096	99.9394	200.151
8.1675	99.9101	99.9391	200.151
8.17	99.9107	99.9389	200.15
8.1725	99.9113	99.9387	200.15
8.175	99.9118	99.9385	200.15
8.1775	99.9124	99.9383	200.149
8.18	99.9129	99.938	200.149
8.1825	99.9135	99.9378	200.149
8.185	99.9141	99.9376	200.148
8.1875	99.9146	99.9374	200.148
8.19	99.9152	99.9372	200.148
8.1925	99.9157	99.937	200.147
8.195	99.9163	99.9368	200.147
8.1975	99.9168	99.9365	200.147
8.2	99.9174	99.9363	200.146
8.2025	99.9179	99.9361	200.146
8.205	99.9185	99.9359	200.146
8.2075	99.919	99.9357	200.145
8.21	99.9195	99.9355	200.145
8.2125	99.9201	99.9353	200.145
8.215	99.9206	99.9351	200.144
8.2175	99.9212	99.9349	200.144
8.22	99.9217	99.9347	200.144
8.2225	99.9222	99.9345	200.143
8.225	99.9228	99.9343	200.143
8.2275	99.9233	99.9341	200.143
8.23	99.9239	99.934	200.142
8.2325	99.9244	99.9338	200.142
8.235	99.9249	99.9336	200.142
8.2375	99.9254	99.9334	200.141
8.24	99.926	99.9332	200.141
8.2425	99.9265	99.933	200.14
8.245	99.927	99.9328	200.14
8.2475	99.9276	99.9327	200.14
8.25	99.9281	99.9325	200.139
8.2525	99.9286	99.9323	200.139
8.255	99.9291	99.9321	200.139
8.2575	99.9296	99.9319	200.138
8.26	99.9302	99.9318	200.138
8.2625	99.9307	99.9316	200.138
8.265	99.9312	99.9314	200.137
8.2675	99.9317	99.9313	200.137
8.27	99.9322	99.9311	200.137
8.2725	99.9327	99.9309	200.136
8.275	99.9332	99.9307	200.136
8.2775	99.9338	99.9306	200.136
8.28	99.9343	99.9304	200.135
8.2825	99.9348	99.9303	200.135
8.285	99.9353	99.9301	200.135
8.2875	99.9358	99.9299	200.134
8.29	99.9363	99.9298	200.134
8.2925	99.9368	99.9296	200.134
8.295	99.9373	99.9295	200.133
8.2975	99.9378	99.9293	200.133
8.3	99.9383	99.9291	200.133
8.3025	99.9388	99.929	200.132
8.305	99.9393	99.9288	200.132
8.3075	99.9398	99.9287	200.132
8.31	99.9403	99.9285	200.131
8.3125	99.9407	99.9284	200.131
8.315	99.9412	99.9282	200.131
8.3175	99.9417	99.9281	200.13
8.32	99.9422	99.9279	200.13
8.3225	99.9427	99.9278	200.129
8.325	99.9432	99.9277	200.129
8.3275	99.9437	99.9275	200.129
8.33	99.9441	99.9274	200.128
8.3325	99.9446	99.9272	200.128
8.335	99.9451	99.9271	200.128
8.3375	99.9456	99.927	200.127
8.34	99.9461	99.9268	200.127
8.3425	99.9465	99.9267	200.127
8.345	99.947	99.9266	200.126
8.3475	99.9475	99.9264	200.126
8.35	99.948	99.9263	200.126
8.3525	99.9484	99.9262	200.125
8.355	99.9489	99.926	200.125
8.3575	99.9494	99.9259	200.125
8.36	99.9498	99.9258	200.124
8.3625	99.9503	99.9257	200.124
8.365	99.9508	99.9255	200.124
8.3675	99.9512	99.9254	200.123
8.37	99.9517	99.9253	200.123
8.3725	99.9522	99.9252	200.123
8.375	99.9526	99.9251	200.122
8.3775	99.9531	99.9249	200.122
8.38	99.9535	99.9248	200.122
8.3825	99.954	99.9247	200.121
8.385	99.9544	99.9246	200.121
8.3875	99.9549	99.9245	200.121
8.39	99.9553	99.9244	200.12
8.3925	99.9558	99.9243	200.12
8.395	99.9562	99.9241	200.12
8.3975	99.9567	99.924	200.119
8.4	99.9571	99.9239	200.119
8.4025	99.9576	99.9238	200.119
8.405	99.958	99.9237	200.118
8.4075	99.9585	99.9236	200.118
8.41	99.9589	99.9235	200.118
8.4125	99.9593	99.9234	200.117
8.415	99.9598	99.9233	200.117
8.4175	99.9602	99.9232	200.117
8.42	99.9607	99.9231	200.116
8.4225	99.9611	99.923	200.116
8.425	99.9615	99.9229	200.116
8.4275	99.962	99.9228	200.115
8.43	99.9624	99.9227	200.115
8.4325	99.9628	99.9226	200.115
8.435	99.9633	99.9225	200.114
8.4375	99.9637	99.9224	200.114
8.44	99.9641	99.9224	200.114
8.4425	99.9645	99.9223	200.113
8.445	99.965	99.9222	200.113
8.4475	99.9654	99.9221	200.113
8.45	99.9658	99.922	200.112
8.4525	99.9662	99.9219	200.112
8.455	99.9666	99.9218	200.112
8.4575	99.9671	99.9218	200.111
8.46	99.9675	99.9217	200.111
8.4625	99.9679	99.9216	200.111
8.465	99.9683	99.9215	200.11
8.4675	99.9687	99.9214	200.11
8.47	99.9691	99.9214	200.11
8.4725	99.9695	99.9213	200.109
8.475	99.9699	99.9212	200.109
8.4775	99.9704	99.9211	200.109
8.48	99.9708	99.9211	200.108
8.4825	99.9712	99.921	200.108
8.485	99.9716	99.9209	200.108
8.4875	99.972	99.9208	200.107
8.49	99.9724	99.9208	200.107
8.4925	99.9728	99.9207	200.107
8.495	99.9732	99.9206	200.106
8.4975	99.9736	99.9206	200.106
8.5	99.974	99.9205	200.106
8.5025	99.9744	99.9204	200.105
8.505	99.9748	99.9204	200.105
8.5075	99.9751	99.9203	200.105
8.51	99.9755	99.9203	200.104
8.5125	99.9759	99.9202	200.104
8.515	99.9763	99.9201	200.104
8.5175	99.9767	99.9201	200.103
8.52	99.9771	99.92	200.103
8.5225	99.9775	99.92	200.103
8.525	99.9779	99.9199	200.102
8.5275	99.9782	99.9198	200.102
8.53	99.9786	99.9198	200.102
8.5325	99.979	99.9197	200.101
8.535	99.9794	99.9197	200.101
8.5375	99.9798	99.9196	200.101
8.54	99.9801	99.9196	200.1
8.5425	99.9805	99.9195	200.1
8.545	99.9809	99.9195	200.1
8.5475	99.9813	99.9194	200.099
8.55	99.9816	99.9194	200.099
8.5525	99.982	99.9194	200.099
8.555	99.9824	99.9193	200.098
8.5575	99.9827	99.9193	200.098
8.56	99.9831	99.9192	200.098
8.5625	99.9835	99.9192	200.097
8.565	99.9838	99.9191	200.097
8.5675	99.9842	99.9191	200.097
8.57	99.9846	99.9191	200.096
8.5725	99.9849	99.919	200.096
8.575	99.9853	99.919	200.096
8.5775	99.9856	99.9189	200.095
8.58	99.986	99.9189	200.095
8.5825	99.9864	99.9189	200.095
8.585	99.9867	99.9188	200.094
8.5875	99.9871	99.9188	200.094
8.59	99.9874	99.9188	200.094
8.5925	99.9878	99.9188	200.093
8.595	99.9881	99.9187	200.093
8.5975	99.9885	99.9187	200.093
8.6	99.9888	99.9187	200.093
8.6025	99.9892	99.9186	200.092
8.605	99.9895	99.9186	200.092
8.6075	99.9898	99.9186	200.092
8.61	99.9902	99.9186	200.091
8.6125	99.9905	99.9185	200.091
8.615	99.9909	99.9185	200.091
8.6175	99.9912	99.9185	200.09
8.62	99.9915	99.9185	200.09
8.6225	99.9919	99.9184	200.09
8.625	99.9922	99.9184	200.089
8.6275	99.9926	99.9184	200.089
8.63	99.9929	99.9184	200.089
8.6325	99.9932	99.9184	200.088
8.635	99.9935	99.9184	200.088
8.6375	99.9939	99.9183	200.088
8.64	99.9942	99.9183	200.087
8.6425	99.9945	99.9183	200.087
8.645	99.9949	99.9183	200.087
8.6475	99.9952	99.9183	200.087
8.65	99.9955	99.9183	200.086
8.6525	99.9958	99.9183	200.086
8.655	99.9962	99.9183	200.086
8.6575	99.9965	99.9182	200.085
8.66	99.9968	99.9182	200.085
8.6625	99.9971	99.9182	200.085
8.665	99.9974	99.9182	200.084
8.6675	99.9977	99.9182	200.084
8.67	99.9981	99.9182	200.084
8.6725	99.9984	99.9182	200.083
8.675	99.9987	99.9182	200.083
8.6775	99.999	99.9182	200.083
8.68	99.9993	99.9182	200.082
8.6825	99.9996	99.9182	200.082
8.685	99.9999	99.9182	200.082
8.6875	100	99.9182	200.082
8.69	100.001	99.9182	200.081
8.6925	100.001	99.9182	200.081
8.695	100.001	99.9182	200.081
8.6975	100.001	99.9182	200.08
8.7	100.002	99.9182	200.08
8.7025	100.002	99.9182	200.08
8.705	100.002	99.9182	200.079
8.7075	100.003	99.9182	200.079
8.71	100.003	99.9182	200.079
8.7125	100.003	99.9182	200.079
8.715	100.004	99.9182	200.078
8.7175	100.004	99.9183	200.078
8.72	100.004	99.9183	200.078
8.7225	100.004	99.9183	200.077
8.725	100.005	99.9183	200.077
8.7275	100.005	99.9183	200.077
8.73	100.005	99.9183	200.076
8.7325	100.006	99.9183	200.076
8.735	100.006	99.9183	200.076
8.7375	100.006	99.9184	200.076
8.74	100.006	99.9184	200.075
8.7425	100.007	99.9184	200.075
8.745	100.007	99.9184	200.075
8.7475	100.007	99.9184	200.074
8.75	100.008	99.9184	200.074
8.7525	100.008	99.9185	200.074
8.755	100.008	99.9185	200.073
8.7575	100.008	99.9185	200.073
8.76	100.009	99.9185	200.073
8.7625	100.009	99.9185	200.073
8.765	100.009	99.9186	200.072
8.7675	100.009	99.9186	200.072
8.77	100.01	99.9186	200.072
8.7725	100.01	99.9186	200.071
8.775	100.01	99.9187	200.071
8.7775	100.011	99.9187	200.071
8.78	100.011	99.9187	200.071
8.7825	100.011	99.9187	200.07
8.785	100.011	99.9188	200.07
8.7875	100.012	99.9188	200.07
8.79	100.012	99.9188	200.069
8.7925	100.012	99.9189	200.069
8.795	100.012	99.9189	200.069
8.7975	100.013	99.9189	200.068
8.8	100.013	99.919	200.068
8.8025	100.013	99.919	200.068
8.805	100.013	99.919	200.068
8.8075	100.014	99.919	200.067
8.81	100.014	99.9191	200.067
8.8125	100.014	99.9191	200.067
8.815	100.014	99.9192	200.066
8.8175	100.015	99.9192	200.066
8.82	100.015	99.9192	200.066
8.8225	100.015	99.9193	200.066
8.825	100.015	99.9193	200.065
8.8275	100.016	99.9193	200.065
8.83	100.016	99.9194	200.065
8.8325	100.016	99.9194	200.064
8.835	100.016	99.9195	200.064
8.8375	100.017	99.9195	200.064
8.84	100.017	99.9195	200.064
8.8425	100.017	99.9196	200.063
8.845	100.017	99.9196	200.063
8.8475	100.018	99.9197	200.063
8.85	100.018	99.9197	200.063
8.8525	100.018	99.9198	200.062
8.855	100.018	99.9198	200.062
8.8575	100.018	99.9199	200.062
8.86	100.019	99.9199	200.061
8.8625	100.019	99.9199	200.061
8.865	100.019	99.92	200.061
8.8675	100.019	99.92	200.061
8.87	100.02	99.9201	200.06
8.8725	100.02	99.9201	200.06
8.875	100.02	99.9202	200.06
8.8775	100.02	99.9202	200.059
8.88	100.02	99.9203	200.059
8.8825	100.021	99.9203	200.059
8.885	100.021	99.9204	200.059
8.8875	100.021	99.9204	200.058
8.89	100.021	99.9205	200.058
8.8925	100.022	99.9206	200.058
8.895	100.022	99.9206	200.058
8.8975	100.022	99.9207	200.057
8.9	100.022	99.9207	200.057
8.9025	100.022	99.9208	200.057
8.905	100.023	99.9208	200.057
8.9075	100.023	99.9209	200.056
8.91	100.023	99.9209	200.056
8.9125	100.023	99.921	200.056
8.915	100.024	99.9211	200.055
8.9175	100.024	99.9211	200.055
8.92	100.024	99.9212	200.055
8.9225	100.024	99.9212	200.055
8.925	100.024	99.9213	200.054
8.9275	100.025	99.9214	200.054
8.93	100.025	99.9214	200.054
8.9325	100.025	99.9215	200.054
8.935	100.025	99.9215	200.053
8.9375	100.025	99.9216	200.053
8.94	100.026	99.9217	200.053
8.9425	100.026	99.9217	200.053
8.945	100.026	99.9218	200.052
8.9475	100.026	99.9219	200.052
8.95	100.026	99.9219	200.052
8.9525	100.027	99.922	200.051
8.955	100.027	99.9221	200.051
8.9575	100.027	99.9221	200.051
8.96	100.027	99.9222	200.051
8.9625	100.027	99.9223	200.05
8.965	100.027	99.9223	200.05
8.9675	100.028	99.9224	200.05
8.97	100.028	99.9225	200.05
8.9725	100.028	99.9225	200.049
8.975	100.028	99.9226	200.049
8.9775	100.028	99.9227	200.049
8.98	100.029	99.9228	200.049
8.9825	100.029	99.9228	200.048
8.985	100.029	99.9229	200.048
8.9875	100.029	99.923	200.048
8.99	100.029	99.923	200.048
8.9925	100.029	99.9231	200.047
8.995	100.03	99.9232	200.047
8.9975	100.03	99.9233	200.047
9	100.03	99.9233	200.047
9.0025	100.03	99.9234	200.046
9.005	100.03	99.9235	200.046
9.0075	100.031	99.9236	200.046
9.01	100.031	99.9236	200.046
9.0125	100.031	99.9237	200.045
9.015	100.031	99.9238	200.045
9.0175	100.031	99.9239	200.045
9.02	100.031	99.924	200.045
9.0225	100.032	99.924	200.044
9.025	100.032	99.9241	200.044
9.0275	100.032	99.9242	200.044
9.03	100.032	99.9243	200.044
9.0325	100.032	99.9244	200.043
9.035	100.032	99.9244	200.043
9.0375	100.033	99.9245	200.043
9.04	100.033	99.9246	200.043
9.0425	100.033	99.9247	200.042
9.045	100.033	99.9248	200.042
9.0475	100.033	99.9248	200.042
9.05	100.033	99.9249	200.042
9.0525	100.033	99.925	200.042
9.055	100.034	99.9251	200.041
9.0575	100.034	99.9252	200.041
9.06	100.034	99.9253	200.041
9.0625	100.034	99.9253	200.041
9.065	100.034	99.9254	200.04
9.0675	100.034	99.9255	200.04
9.07	100.035	99.9256	200.04
9.0725	100.035	99.9257	200.04
9.075	100.035	99.9258	200.039
9.0775	100.035	99.9259	200.039
9.08	100.035	99.926	200.039
9.0825	100.035	99.926	200.039
9.085	100.035	99.9261	200.038
9.0875	100.036	99.9262	200.038
9.09	100.036	99.9263	200.038
9.0925	100.036	99.9264	200.038
9.095	100.036	99.9265	200.038
9.0975	100.036	99.9266	200.037
9.1	100.036	99.9267	200.037
9.1025	100.036	99.9268	200.037
9.105	100.037	99.9268	200.037
9.1075	100.037	99.9269	200.036
9.11	100.037	99.927	200.036
9.1125	100.037	99.9271	200.036
9.115	100.037	99.9272	200.036
9.1175	100.037	99.9273	200.035
9.12	100.037	99.9274	200.035
9.1225	100.037	99.9275	200.035
9.125	100.038	99.9276	200.035
9.1275	100.038	99.9277	200.035
9.13	100.038	99.9278	200.034
9.1325	100.038	99.9279	200.034
9.135	100.038	99.928	200.034
9.1375	100.038	99.9281	200.034
9.14	100.038	99.9282	200.033
9.1425	100.039	99.9283	200.033
9.145	100.039	99.9284	200.033
9.1475	100.039	99.9284	200.033
9.15	100.039	99.9285	200.033
9.1525	100.039	99.9286	200.032
9.155	100.039	99.9287	200.032
9.1575	100.039	99.9288	200.032
9.16	100.039	99.9289	200.032
9.1625	100.039	99.929	200.031
9.165	100.04	99.9291	200.031
9.1675	100.04	99.9292	200.031
9.17	100.04	99.9293	200.031
9.1725	100.04	99.9294	200.031
9.175	100.04	99.9295	200.03
9.1775	100.04	99.9296	200.03
9.18	100.04	99.9297	200.03
9.1825	100.04	99.9298	200.03
9.185	100.041	99.9299	200.03
9.1875	100.041	99.93	200.029
9.19	100.041	99.9301	200.029
9.1925	100.041	99.9302	200.029
9.195	100.041	99.9303	200.029
9.1975	100.041	99.9304	200.028
9.2	100.041	99.9305	200.028
9.2025	100.041	99.9306	200.028
9.205	100.041	99.9308	200.028
9.2075	100.041	99.9309	200.028
9.21	100.042	99.931	200.027
9.2125	100.042	99.9311	200.027
9.215	100.042	99.9312	200.027
9.2175	100.042	99.9313	200.027
9.22	100.042	99.9314	200.027
9.2225	100.042	99.9315	200.026
9.225	100.042	99.9316	200.026
9.2275	100.042	99.9317	200.026
9.23	100.042	99.9318	200.026
9.2325	100.042	99.9319	200.026
9.235	100.043	99.932	200.025
9.2375	100.043	99.9321	200.025
9.24	100.043	99.9322	200.025
9.2425	100.043	99.9323	200.025
9.245	100.043	99.9324	200.025
9.2475	100.043	99.9325	200.024
9.25	100.043	99.9327	200.024
9.2525	100.043	99.9328	200.024
9.255	100.043	99.9329	200.024
9.2575	100.043	99.933	200.024
9.26	100.043	99.9331	200.023
9.2625	100.044	99.9332	200.023
9.265	100.044	99.9333	200.023
9.2675	100.044	99.9334	200.023
9.27	100.044	99.9335	200.023
9.2725	100.044	99.9336	200.022
9.275	100.044	99.9337	200.022
9.2775	100.044	99.9339	200.022
9.28	100.044	99.934	200.022
9.2825	100.044	99.9341	200.022
9.285	100.044	99.9342	200.021
9.2875	100.044	99.9343	200.021
9.29	100.045	99.9344	200.021
9.2925	100.045	99.9345	200.021
9.295	100.045	99.9346	200.021
9.2975	100.045	99.9347	200.021
9.3	100.045	99.9349	200.02
9.3025	100.045	99.935	200.02
9.305	100.045	99.9351	200.02
9.3075	100.045	99.9352	200.02
9.31	100.045	99.9353	200.02
9.3125	100.045	99.9354	200.019
9.315	100.045	99.9355	200.019
9.3175	100.045	99.9356	200.019
9.32	100.045	99.9358	200.019
9.3225	100.045	99.9359	200.019
9.325	100.046	99.936	200.018
9.3275	100.046	99.9361	200.018
9.33	100.046	99.9362	200.018
9.3325	100.046	99.9363	200.018
9.335	100.046	99.9364	200.018
9.3375	100.046	99.9366	200.018
9.34	100.046	99.9367	200.017
9.3425	100.046	99.9368	200.017
9.345	100.046	99.9369	200.017
9.3475	100.046	99.937	200.017
9.35	100.046	99.9371	200.017
9.3525	100.046	99.9372	200.016
9.355	100.046	99.9374	200.016
9.3575	100.046	99.9375	200.016
9.36	100.046	99.9376	200.016
9.3625	100.047	99.9377	200.016
9.365	100.047	99.9378	200.016
9.3675	100.047	99.9379	200.015
9.37	100.047	99.9381	200.015
9.3725	100.047	99.9382	200.015
9.375	100.047	99.9383	200.015
9.3775	100.047	99.9384	200.015
9.38	100.047	99.9385	200.015
9.3825	100.047	99.9386	200.014
9.385	100.047	99.9388	200.014
9.3875	100.047	99.9389	200.014
9.39	100.047	99.939	200.014
9.3925	100.047	99.9391	200.014
9.395	100.047	99.9392	200.014
9.3975	100.047	99.9393	200.013
9.4	100.047	99.9395	200.013
9.4025	100.047	99.9396	200.013
9.405	100.047	99.9397	200.013
9.4075	100.047	99.9398	200.013
9.41	100.048	99.9399	200.013
9.4125	100.048	99.9401	200.012
9.415	100.048	99.9402	200.012
9.4175	100.048	99.9403	200.012
9.42	100.048	99.9404	200.012
9.4225	100.048	99.9405	200.012
9.425	100.048	99.9407	200.012
9.4275	100.048	99.9408	200.011
9.43	100.048	99.9409	200.011
9.4325	100.048	99.941	200.011
9.435	100.048	99.9411	200.011
9.4375	100.048	99.9413	200.011
9.44	100.048	99.9414	200.011
9.4425	100.048	99.9415	200.01
9.445	100.048	99.9416	200.01
9.4475	100.048	99.9417	200.01
9.45	100.048	99.9419	200.01
9.4525	100.048	99.942	200.01
9.455	100.048	99.9421	200.01
9.4575	100.048	99.9422	200.009
9.46	100.048	99.9423	200.009
9.4625	100.048	99.9425	200.009
9.465	100.048	99.9426	200.009
9.4675	100.048	99.9427	200.009
9.47	100.048	99.9428	200.009
9.4725	100.049	99.9429	200.009
9.475	100.049	99.9431	200.008
9.4775	100.049	99.9432	200.008
9.48	100.049	99.9433	200.008
9.4825	100.049	99.9434	200.008
9.485	100.049	99.9435	200.008
9.4875	100.049	99.9437	200.008
9.49	100.049	99.9438	200.007
9.4925	100.049	99.9439	200.007
9.495	100.049	99.944	200.007
9.4975	100.049	99.9442	200.007
9.5	100.049	99.9443	200.007
9.5025	100.049	99.9444	200.007
9.505	100.049	99.9445	200.007
9.5075	100.049	99.9446	200.006
9.51	100.049	99.9448	200.006
9.5125	100.049	99.9449	200.006
9.515	100.049	99.945	200.006
9.5175	100.049	99.9451	200.006
9.52	100.049	99.9453	200.006
9.5225	100.049	99.9454	200.006
9.525	100.049	99.9455	200.005
9.5275	100.049	99.9456	200.005
9.53	100.049	99.9457	200.005
9.5325	100.049	99.9459	200.005
9.535	100.049	99.946	200.005
9.5375	100.049	99.9461	200.005
9.54	100.049	99.9462	200.005
9.5425	100.049	99.9464	200.004
9.545	100.049	99.9465	200.004
9.5475	100.049	99.9466	200.004
9.55	100.049	99.9467	200.004
9.5525	100.049	99.9469	200.004
9.555	100.049	99.947	200.004
9.5575	100.049	99.9471	200.004
9.56	100.049	99.9472	200.003
9.5625	100.049	99.9473	200.003
9.565	100.049	99.9475	200.003
9.5675	100.049	99.9476	200.003
9.57	100.049	99.9477	200.003
9.5725	100.049	99.9478	200.003
9.575	100.049	99.948	200.003
9.5775	100.049	99.9481	200.003
9.58	100.049	99.9482	200.002
9.5825	100.049	99.9483	200.002
9.585	100.049	99.9485	200.002
9.5875	100.049	99.9486	200.002
9.59	100.049	99.9487	200.002
9.5925	100.049	99.9488	200.002
9.595	100.049	99.9489	200.002
9.5975	100.049	99.9491	200.001
9.6	100.049	99.9492	200.001
9.6025	100.049	99.9493	200.001
9.605	100.049	99.9494	200.001
9.6075	100.049	99.9496	200.001
9.61	100.049	99.9497	200.001
9.6125	100.049	99.9498	200.001
9.615	100.049	99.9499	200.001
9.6175	100.049	99.9501	200
9.62	100.049	99.9502	200
9.6225	100.049	99.9503	200
9.625	100.049	99.9504	200
9.6275	100.049	99.9506	200
9.63	100.049	99.9507	200
9.6325	100.049	99.9508	200
9.635	100.049	99.9509	200
9.6375	100.049	99.951	199.999
9.64	100.049	99.9512	199.999
9.6425	100.049	99.9513	199.999
9.645	100.049	99.9514	199.999
9.6475	100.049	99.9515	199.999
9.65	100.049	99.9517	199.999
9.6525	100.049	99.9518	199.999
9.655	100.049	99.9519	199.999
9.6575	100.049	99.952	199.999
9.66	100.049	99.9522	199.998
9.6625	100.049	99.9523	199.998
9.665	100.049	99.9524	199.998
9.6675	100.049	99.9525	199.998
9.67	100.049	99.9527	199.998
9.6725	100.049	99.9528	199.998
9.675	100.049	99.9529	199.998
9.6775	100.049	99.953	199.998
9.68	100.049	99.9531	199.997
9.6825	100.049	99.9533	199.997
9.685	100.049	99.9534	199.997
9.6875	100.049	99.9535	199.997
9.69	100.049	99.9536	199.997
9.6925	100.049	99.9538	199.997
9.695	100.049	99.9539	199.997
9.6975	100.049	99.954	199.997
9.7	100.049	99.9541	199.997
9.7025	100.049	99.9543	199.996
9.705	100.049	99.9544	199.996
9.7075	100.049	99.9545	199.996
9.71	100.049	99.9546	199.996
9.7125	100.049	99.9547	199.996
9.715	100.049	99.9549	199.996
9.7175	100.049	99.955	199.996
9.72	100.049	99.9551	199.996
9.7225	100.049	99.9552	199.996
9.725	100.049	99.9554	199.996
9.7275	100.049	99.9555	199.995
9.73	100.049	99.9556	199.995
9.7325	100.049	99.9557	199.995
9.735	100.049	99.9559	199.995
9.7375	100.049	99.956	199.995
9.74	100.049	99.9561	199.995
9.7425	100.049	99.9562	199.995
9.745	100.049	99.9563	199.995
9.7475	100.049	99.9565	199.995
9.75	100.049	99.9566	199.994
9.7525	100.049	99.9567	199.994
9.755	100.049	99.9568	199.994
9.7575	100.049	99.957	199.994
9.76	100.049	99.9571	199.994
9.7625	100.049	99.9572	199.994
9.765	100.049	99.9573	199.994
9.7675	100.049	99.9574	199.994
9.77	100.049	99.9576	199.994
9.7725	100.049	99.9577	199.994
9.775	100.049	99.9578	199.993
9.7775	100.049	99.9579	199.993
9.78	100.049	99.9581	199.993
9.7825	100.049	99.9582	199.993
9.785	100.049	99.9583	199.993
9.7875	100.049	99.9584	199.993
9.79	100.049	99.9585	199.993
9.7925	100.049	99.9587	199.993
9.795	100.049	99.9588	199.993
9.7975	100.048	99.9589	199.993
9.8	100.048	99.959	199.993
9.8025	100.048	99.9591	199.992
9.805	100.048	99.9593	199.992
9.8075	100.048	99.9594	199.992
9.81	100.048	99.9595	199.992
9.8125	100.048	99.9596	199.992
9.815	100.048	99.9597	199.992
9.8175	100.048	99.9599	199.992
9.82	100.048	99.96	199.992
9.8225	100.048	99.9601	199.992
9.825	100.048	99.9602	199.992
9.8275	100.048	99.9604	199.992
9.83	100.048	99.9605	199.991
9.8325	100.048	99.9606	199.991
9.835	100.048	99.9607	199.991
9.8375	100.048	99.9608	199.991
9.84	100.048	99.961	199.991
9.8425	100.048	99.9611	199.991
9.845	100.048	99.9612	199.991
9.8475	100.048	99.9613	199.991
9.85	100.048	99.9614	199.991
9.8525	100.048	99.9615	199.991
9.855	100.048	99.9617	199.991
9.8575	100.048	99.9618	199.99
9.86	100.048	99.9619	199.99
9.8625	100.048	99.962	199.99
9.865	100.048	99.9621	199.99
9.8675	100.048	99.9623	199.99
9.87	100.048	99.9624	199.99
9.8725	100.048	99.9625	199.99
9.875	100.047	99.9626	199.99
9.8775	100.047	99.9627	199.99
9.88	100.047	99.9629	199.99
9.8825	100.047	99.963	199.99
9.885	100.047	99.9631	199.99
9.8875	100.047	99.9632	199.99
9.89	100.047	99.9633	199.989
9.8925	100.047	99.9634	199.989
9.895	100.047	99.9636	199.989
9.8975	100.047	99.9637	199.989
9.9	100.047	99.9638	199.989
9.9025	100.047	99.9639	199.989
9.905	100.047	99.964	199.989
9.9075	100.047	99.9642	199.989
9.91	100.047	99.9643	199.989
9.9125	100.047	99.9644	199.989
9.915	100.047	99.9645	199.989
9.9175	100.047	99.9646	199.989
9.92	100.047	99.9647	199.989
9.9225	100.047	99.9649	199.988
9.925	100.047	99.965	199.988
9.9275	100.047	99.9651	199.988
9.93	100.047	99.9652	199.988
9.9325	100.047	99.9653	199.988
9.935	100.046	99.9654	199.988
9.9375	100.046	99.9656	199.988
9.94	100.046	99.9657	199.988
9.9425	100.046	99.9658	199.988
9.945	100.046	99.9659	199.988
9.9475	100.046	99.966	199.988
9.95	100.046	99.9661	199.988
9.9525	100.046	99.9662	199.988
9.955	100.046	99.9664	199.988
9.9575	100.046	99.9665	199.987
9.96	100.046	99.9666	199.987
9.9625	100.046	99.9667	199.987
9.965	100.046	99.9668	199.987
9.9675	100.046	99.9669	199.987
9.97	100.046	99.9671	199.987
9.9725	100.046	99.9672	199.987
9.975	100.046	99.9673	199.987
9.9775	100.046	99.9674	199.987
9.98	100.046	99.9675	199.987
9.9825	100.046	99.9676	199.987
9.985	100.046	99.9677	199.987
9.9875	100.045	99.9679	199.987
9.99	100.045	99.968	199.987
9.9925	100.045	99.9681	199.987
9.995	100.045	99.9682	199.986
9.9975	100.045	99.9683	199.986
10	100.045	99.9684	199.986
10.0025	100.045	99.9685	199.986
10.005	100.045	99.9686	199.986
10.0075	100.045	99.9688	199.986
10.01	100.045	99.9689	199.986
10.0125	100.045	99.969	199.986
10.015	100.045	99.9691	199.986
10.0175	100.045	99.9692	199.986
10.02	100.045	99.9693	199.986
10.0225	100.045	99.9694	199.986
10.025	100.045	99.9695	199.986
10.0275	100.045	99.9697	199.986
10.03	100.045	99.9698	199.986
10.0325	100.045	99.9699	199.986
10.035	100.044	99.97	199.986
10.0375	100.044	99.9701	199.985
10.04	100.044	99.9702	199.985
10.0425	100.044	99.9703	199.985
10.045	100.044	99.9704	199.985
10.0475	100.044	99.9705	199.985
10.05	100.044	99.9707	199.985
10.0525	100.044	99.9708	199.985
10.055	100.044	99.9709	199.985
10.0575	100.044	99.971	199.985
10.06	100.044	99.9711	199.985
10.0625	100.044	99.9712	199.985
10.065	100.044	99.9713	199.985
10.0675	100.044	99.9714	199.985
10.07	100.044	99.9715	199.985
10.0725	100.044	99.9716	199.985
10.075	100.044	99.9717	199.985
10.0775	100.044	99.9719	199.985
10.08	100.043	99.972	199.985
10.0825	100.043	99.9721	199.985
10.085	100.043	99.9722	199.984
10.0875	100.043	99.9723	199.984
10.09	100.043	99.9724	199.984
10.0925	100.043	99.9725	199.984
10.095	100.043	99.9726	199.984
10.0975	100.043	99.9727	199.984
10.1	100.043	99.9728	199.984
10.1025	100.043	99.9729	199.984
10.105	100.043	99.973	199.984
10.1075	100.043	99.9732	199.984
10.11	100.043	99.9733	199.984
10.1125	100.043	99.9734	199.984
10.115	100.043	99.9735	199.984
10.1175	100.043	99.9736	199.984
10.12	100.043	99.9737	199.984
10.1225	100.042	99.9738	199.984
10.125	100.042	99.9739	199.984
10.1275	100.042	99.974	199.984
10.13	100.042	99.9741	199.984
10.1325	100.042	99.9742	199.984
10.135	100.042	99.9743	199.984
10.1375	100.042	99.9744	199.983
10.14	100.042	99.9745	199.983
10.1425	100.042	99.9746	199.983
10.145	100.042	99.9747	199.983
10.1475	100.042	99.9748	199.983
10.15	100.042	99.975	199.983
10.1525	100.042	99.9751	199.983
10.155	100.042	99.9752	199.983
10.1575	100.042	99.9753	199.983
10.16	100.042	99.9754	199.983
10.1625	100.041	99.9755	199.983
10.165	100.041	99.9756	199.983
10.1675	100.041	99.9757	199.983
10.17	100.041	99.9758	199.983
10.1725	100.041	99.9759	199.983
10.175	100.041	99.976	199.983
10.1775	100.041	99.9761	199.983
10.18	100.041	99.9762	199.983
10.1825	100.041	99.9763	199.983
10.185	100.041	99.9764	199.983
10.1875	100.041	99.9765	199.983
10.19	100.041	99.9766	199.983
10.1925	100.041	99.9767	199.983
10.195	100.041	99.9768	199.983
10.1975	100.041	99.9769	199.983
10.2	100.041	99.977	199.982
10.2025	100.04	99.9771	199.982
10.205	100.04	99.9772	199.982
10.2075	100.04	99.9773	199.982
10.21	100.04	99.9774	199.982
10.2125	100.04	99.9775	199.982
10.215	100.04	99.9776	199.982
10.2175	100.04	99.9777	199.982
10.22	100.04	99.9778	199.982
10.2225	100.04	99.9779	199.982
10.225	100.04	99.978	199.982
10.2275	100.04	99.9781	199.982
10.23	100.04	99.9782	199.982
10.2325	100.04	99.9783	199.982
10.235	100.04	99.9784	199.982
10.2375	100.04	99.9785	199.982
10.24	100.039	99.9786	199.982
10.2425	100.039	99.9787	199.982
10.245	100.039	99.9788	199.982
10.2475	100.039	99.9789	199.982
10.25	100.039	99.979	199.982
10.2525	100.039	99.9791	199.982
10.255	100.039	99.9792	199.982
10.2575	100.039	99.9793	199.982
10.26	100.039	99.9794	199.982
10.2625	100.039	99.9795	199.982
10.265	100.039	99.9796	199.982
10.2675	100.039	99.9797	199.982
10.27	100.039	99.9798	199.982
10.2725	100.039	99.9799	199.982
10.275	100.038	99.98	199.982
10.2775	100.038	99.9801	199.982
10.28	100.038	99.9802	199.981
10.2825	100.038	99.9803	199.981
10.285	100.038	99.9804	199.981
10.2875	100.038	99.9804	199.981
10.29	100.038	99.9805	199.981
10.2925	100.038	99.9806	199.981
10.295	100.038	99.9807	199.981
10.2975	100.038	99.9808	199.981
10.3	100.038	99.9809	199.981
10.3025	100.038	99.981	199.981
10.305	100.038	99.9811	199.981
10.3075	100.038	99.9812	199.981
10.31	100.038	99.9813	199.981
10.3125	100.037	99.9814	199.981
10.315	100.037	99.9815	199.981
10.3175	100.037	99.9816	199.981
10.32	100.037	99.9817	199.981
10.3225	100.037	99.9818	199.981
10.325	100.037	99.9819	199.981
10.3275	100.037	99.982	199.981
10.33	100.037	99.982	199.981
10.3325	100.037	99.9821	199.981
10.335	100.037	99.9822	199.981
10.3375	100.037	99.9823	199.981
10.34	100.037	99.9824	199.981
10.3425	100.037	99.9825	199.981
10.345	100.037	99.9826	199.981
10.3475	100.036	99.9827	199.981
10.35	100.036	99.9828	199.981
10.3525	100.036	99.9829	199.981
10.355	100.036	99.983	199.981
10.3575	100.036	99.983	199.981
10.36	100.036	99.9831	199.981
10.3625	100.036	99.9832	199.981
10.365	100.036	99.9833	199.981
10.3675	100.036	99.9834	199.981
10.37	100.036	99.9835	199.981
10.3725	100.036	99.9836	199.981
10.375	100.036	99.9837	199.981
10.3775	100.036	99.9838	199.981
10.38	100.035	99.9839	199.981
10.3825	100.035	99.9839	199.981
10.385	100.035	99.984	199.981
10.3875	100.035	99.9841	199.981
10.39	100.035	99.9842	199.981
10.3925	100.035	99.9843	199.981
10.395	100.035	99.9844	199.981
10.3975	100.035	99.9845	199.981
10.4	100.035	99.9846	199.981
10.4025	100.035	99.9846	199.981
10.405	100.035	99.9847	199.981
10.4075	100.035	99.9848	199.98
10.41	100.035	99.9849	199.98
10.4125	100.035	99.985	199.98
10.415	100.034	99.9851	199.98
10.4175	100.034	99.9852	199.98
10.42	100.034	99.9853	199.98
10.4225	100.034	99.9853	199.98
10.425	100.034	99.9854	199.98
10.4275	100.034	99.9855	199.98
10.43	100.034	99.9856	199.98
10.4325	100.034	99.9857	199.98
10.435	100.034	99.9858	199.98
10.4375	100.034	99.9858	199.98
10.44	100.034	99.9859	199.98
10.4425	100.034	99.986	199.98
10.445	100.034	99.9861	199.98
10.4475	100.034	99.9862	199.98
10.45	100.033	99.9863	199.98
10.4525	100.033	99.9863	199.98
10.455	100.033	99.9864	199.98
10.4575	100.033	99.9865	199.98
10.46	100.033	99.9866	199.98
10.4625	100.033	99.9867	199.98
10.465	100.033	99.9868	199.98
10.4675	100.033	99.9868	199.98
10.47	100.033	99.9869	199.98
10.4725	100.033	99.987	199.98
10.475	100.033	99.9871	199.98
10.4775	100.033	99.9872	199.98
10.48	100.033	99.9873	199.98
10.4825	100.032	99.9873	199.98
10.485	100.032	99.9874	199.98
10.4875	100.032	99.9875	199.98
10.49	100.032	99.9876	199.98
10.4925	100.032	99.9877	199.98
10.495	100.032	99.9877	199.98
10.4975	100.032	99.9878	199.98
10.5	100.032	99.9879	199.98
10.5025	100.032	99.988	199.98
10.505	100.032	99.9881	199.98
10.5075	100.032	99.9881	199.98
10.51	100.032	99.9882	199.98
10.5125	100.032	99.9883	199.98
10.515	100.032	99.9884	199.98
10.5175	100.031	99.9885	199.98
10.52	100.031	99.9885	199.98
10.5225	100.031	99.9886	199.98
10.525	100.031	99.9887	199.98
10.5275	100.031	99.9888	199.98
10.53	100.031	99.9888	199.98
10.5325	100.031	99.9889	199.98
10.535	100.031	99.989	199.98
10.5375	100.031	99.9891	199.98
10.54	100.031	99.9892	199.98
10.5425	100.031	99.9892	199.98
10.545	100.031	99.9893	199.98
10.5475	100.031	99.9894	199.98
10.55	100.03	99.9895	199.98
10.5525	100.03	99.9895	199.98
10.555	100.03	99.9896	199.98
10.5575	100.03	99.9897	199.98
10.56	100.03	99.9898	199.98
10.5625	100.03	99.9898	199.98
10.565	100.03	99.9899	199.98
10.5675	100.03	99.99	199.98
10.57	100.03	99.9901	199.98
10.5725	100.03	99.9901	199.98
10.575	100.03	99.9902	199.98
10.5775	100.03	99.9903	199.98
10.58	100.03	99.9904	199.98
10.5825	100.029	99.9904	199.98
10.585	100.029	99.9905	199.98
10.5875	100.029	99.9906	199.98
10.59	100.029	99.9907	199.98
10.5925	100.029	99.9907	199.98
10.595	100.029	99.9908	199.98
10.5975	100.029	99.9909	199.98
10.6	100.029	99.9909	199.98
10.6025	100.029	99.991	199.98
10.605	100.029	99.9911	199.98
10.6075	100.029	99.9912	199.98
10.61	100.029	99.9912	199.98
10.6125	100.029	99.9913	199.98
10.615	100.029	99.9914	199.98
10.6175	100.028	99.9915	199.98
10.62	100.028	99.9915	199.98
10.6225	100.028	99.9916	199.98
10.625	100.028	99.9917	199.98
10.6275	100.028	99.9917	199.98
10.63	100.028	99.9918	199.98
10.6325	100.028	99.9919	199.98
10.635	100.028	99.9919	199.98
10.6375	100.028	99.992	199.98
10.64	100.028	99.9921	199.98
10.6425	100.028	99.9922	199.98
10.645	100.028	99.9922	199.98
10.6475	100.028	99.9923	199.98
10.65	100.027	99.9924	199.98
10.6525	100.027	99.9924	199.98
10.655	100.027	99.9925	199.98
10.6575	100.027	99.9926	199.98
10.66	100.027	99.9926	199.98
10.6625	100.027	99.9927	199.98
10.665	100.027	99.9928	199.98
10.6675	100.027	99.9928	199.98
10.67	100.027	99.9929	199.98
10.6725	100.027	99.993	199.98
10.675	100.027	99.993	199.98
10.6775	100.027	99.9931	199.98
10.68	100.027	99.9932	199.98
10.6825	100.027	99.9932	199.98
10.685	100.026	99.9933	199.98
10.6875	100.026	99.9934	199.98
10.69	100.026	99.9934	199.98
10.6925	100.026	99.9935	199.98
10.695	100.026	99.9936	199.98
10.6975	100.026	99.9936	199.98
10.7	100.026	99.9937	199.98
10.7025	100.026	99.9938	199.98
10.705	100.026	99.9938	199.98
10.7075	100.026	99.9939	199.98
10.71	100.026	99.994	199.98
10.7125	100.026	99.994	199.98
10.715	100.026	99.9941	199.98
10.7175	100.025	99.9941	199.98
10.72	100.025	99.9942	199.98
10.7225	100.025	99.9943	199.98
10.725	100.025	99.9943	199.98
10.7275	100.025	99.9944	199.98
10.73	100.025	99.9945	199.98
10.7325	100.025	99.9945	199.98
10.735	100.025	99.9946	199.98
10.7375	100.025	99.9947	199.98
10.74	100.025	99.9947	199.98
10.7425	100.025	99.9948	199.98
10.745	100.025	99.9948	199.98
10.7475	100.025	99.9949	199.981
10.75	100.025	99.995	199.981
10.7525	100.024	99.995	199.981
10.755	100.024	99.9951	199.981
10.7575	100.024	99.9951	199.981
10.76	100.024	99.9952	199.981
10.7625	100.024	99.9953	199.981
10.765	100.024	99.9953	199.981
10.7675	100.024	99.9954	199.981
10.77	100.024	99.9954	199.981
10.7725	100.024	99.9955	199.981
10.775	100.024	99.9956	199.981
10.7775	100.024	99.9956	199.981
10.78	100.024	99.9957	199.981
10.7825	100.024	99.9957	199.981
10.785	100.024	99.9958	199.981
10.7875	100.023	99.9959	199.981
10.79	100.023	99.9959	199.981
10.7925	100.023	99.996	199.981
10.795	100.023	99.996	199.981
10.7975	100.023	99.9961	199.981
10.8	100.023	99.9961	199.981
10.8025	100.023	99.9962	199.981
10.805	100.023	99.9963	199.981
10.8075	100.023	99.9963	199.981
10.81	100.023	99.9964	199.981
10.8125	100.023	99.9964	199.981
10.815	100.023	99.9965	199.981
10.8175	100.023	99.9965	199.981
10.82	100.023	99.9966	199.981
10.8225	100.022	99.9967	199.981
10.825	100.022	99.9967	199.981
10.8275	100.022	99.9968	199.981
10.83	100.022	99.9968	199.981
10.8325	100.022	99.9969	199.981
10.835	100.022	99.9969	199.981
10.8375	100.022	99.997	199.981
10.84	100.022	99.997	199.981
10.8425	100.022	99.9971	199.981
10.845	100.022	99.9972	199.981
10.8475	100.022	99.9972	199.981
10.85	100.022	99.9973	199.981
10.8525	100.022	99.9973	199.981
10.855	100.022	99.9974	199.981
10.8575	100.021	99.9974	199.981
10.86	100.021	99.9975	199.981
10.8625	100.021	99.9975	199.981
10.865	100.021	99.9976	199.981
10.8675	100.021	99.9976	199.981
10.87	100.021	99.9977	199.981
10.8725	100.021	99.9977	199.981
10.875	100.021	99.9978	199.981
10.8775	100.021	99.9979	199.981
10.88	100.021	99.9979	199.981
10.8825	100.021	99.998	199.981
10.885	100.021	99.998	199.981
10.8875	100.021	99.9981	199.981
10.89	100.021	99.9981	199.981
10.8925	100.02	99.9982	199.981
10.895	100.02	99.9982	199.981
10.8975	100.02	99.9983	199.981
10.9	100.02	99.9983	199.981
10.9025	100.02	99.9984	199.981
10.905	100.02	99.9984	199.981
10.9075	100.02	99.9985	199.982
10.91	100.02	99.9985	199.982
10.9125	100.02	99.9986	199.982
10.915	100.02	99.9986	199.982
10.9175	100.02	99.9987	199.982
10.92	100.02	99.9987	199.982
10.9225	100.02	99.9988	199.982
10.925	100.02	99.9988	199.982
10.9275	100.019	99.9989	199.982
10.93	100.019	99.9989	199.982
10.9325	100.019	99.999	199.982
10.935	100.019	99.999	199.982
10.9375	100.019	99.9991	199.982
10.94	100.019	99.9991	199.982
10.9425	100.019	99.9991	199.982
10.945	100.019	99.9992	199.982
10.9475	100.019	99.9992	199.982
10.95	100.019	99.9993	199.982
10.9525	100.019	99.9993	199.982
10.955	100.019	99.9994	199.982
10.9575	100.019	99.9994	199.982
10.96	100.019	99.9995	199.982
10.9625	100.019	99.9995	199.982
10.965	100.018	99.9996	199.982
10.9675	100.018	99.9996	199.982
10.97	100.018	99.9997	199.982
10.9725	100.018	99.9997	199.982
10.975	100.018	99.9998	199.982
10.9775	100.018	99.9998	199.982
10.98	100.018	99.9998	199.982
10.9825	100.018	99.9999	199.982
10.985	100.018	99.9999	199.982
10.9875	100.018	100	199.982
10.99	100.018	100	199.982
10.9925	100.018	100	199.982
10.995	100.018	100	199.982
10.9975	100.018	100	199.982
11	100.018	100	199.982
11.0025	100.017	100	199.982
11.005	100.017	100	199.982
11.0075	100.017	100	199.982
11.01	100.017	100	199.982
11.0125	100.017	100	199.982
11.015	100.017	100	199.982
11.0175	100.017	100.001	199.982
11.02	100.017	100.001	199.982
11.0225	100.017	100.001	199.982
11.025	100.017	100.001	199.983
11.0275	100.017	100.001	199.983
11.03	100.017	100.001	199.983
11.0325	100.017	100.001	199.983
11.035	100.017	100.001	199.983
11.0375	100.017	100.001	199.983
11.04	100.016	100.001	199.983
11.0425	100.016	100.001	199.983
11.045	100.016	100.001	199.983
11.0475	100.016	100.001	199.983
11.05	100.016	100.001	199.983
11.0525	100.016	100.001	199.983
11.055	100.016	100.001	199.983
11.0575	100.016	100.001	199.983
11.06	100.016	100.001	199.983
11.0625	100.016	100.001	199.983
11.065	100.016	100.001	199.983
11.0675	100.016	100.001	199.983
11.07	100.016	100.001	199.983
11.0725	100.016	100.001	199.983
11.075	100.016	100.001	199.983
11.0775	100.016	100.001	199.983
11.08	100.015	100.002	199.983
11.0825	100.015	100.002	199.983
11.085	100.015	100.002	199.983
11.0875	100.015	100.002	199.983
11.09	100.015	100.002	199.983
11.0925	100.015	100.002	199.983
11.095	100.015	100.002	199.983
11.0975	100.015	100.002	199.983
11.1	100.015	100.002	199.983
11.1025	100.015	100.002	199.983
11.105	100.015	100.002	199.983
11.1075	100.015	100.002	199.983
11.11	100.015	100.002	199.983
11.1125	100.015	100.002	199.983
11.115	100.015	100.002	199.983
11.1175	100.014	100.002	199.983
11.12	100.014	100.002	199.983
11.1225	100.014	100.002	199.983
11.125	100.014	100.002	199.984
11.1275	100.014	100.002	199.984
11.13	100.014	100.002	199.984
11.1325	100.014	100.002	199.984
11.135	100.014	100.002	199.984
11.1375	100.014	100.002	199.984
11.14	100.014	100.002	199.984
11.1425	100.014	100.002	199.984
11.145	100.014	100.002	199.984
11.1475	100.014	100.003	199.984
11.15	100.014	100.003	199.984
11.1525	100.014	100.003	199.984
11.155	100.014	100.003	199.984
11.1575	100.014	100.003	199.984
11.16	100.013	100.003	199.984
11.1625	100.013	100.003	199.984
11.165	100.013	100.003	199.984
11.1675	100.013	100.003	199.984
11.17	100.013	100.003	199.984
11.1725	100.013	100.003	199.984
11.175	100.013	100.003	199.984
11.1775	100.013	100.003	199.984
11.18	100.013	100.003	199.984
11.1825	100.013	100.003	199.984
11.185	100.013	100.003	199.984
11.1875	100.013	100.003	199.984
11.19	100.013	100.003	199.984
11.1925	100.013	100.003	199.984
11.195	100.013	100.003	199.984
11.1975	100.013	100.003	199.984
11.2	100.012	100.003	199.984
11.2025	100.012	100.003	199.984
11.205	100.012	100.003	199.984
11.2075	100.012	100.003	199.984
11.21	100.012	100.003	199.984
11.2125	100.012	100.003	199.984
11.215	100.012	100.003	199.984
11.2175	100.012	100.003	199.985
11.22	100.012	100.003	199.985
11.2225	100.012	100.003	199.985
11.225	100.012	100.003	199.985
11.2275	100.012	100.004	199.985
11.23	100.012	100.004	199.985
11.2325	100.012	100.004	199.985
11.235	100.012	100.004	199.985
11.2375	100.012	100.004	199.985
11.24	100.012	100.004	199.985
11.2425	100.012	100.004	199.985
11.245	100.011	100.004	199.985
11.2475	100.011	100.004	199.985
11.25	100.011	100.004	199.985
11.2525	100.011	100.004	199.985
11.255	100.011	100.004	199.985
11.2575	100.011	100.004	199.985
11.26	100.011	100.004	199.985
11.2625	100.011	100.004	199.985
11.265	100.011	100.004	199.985
11.2675	100.011	100.004	199.985
11.27	100.011	100.004	199.985
11.2725	100.011	100.004	199.985
11.275	100.011	100.004	199.985
11.2775	100.011	100.004	199.985
11.28	100.011	100.004	199.985
11.2825	100.011	100.004	199.985
11.285	100.011	100.004	199.985
11.2875	100.011	100.004	199.985
11.29	100.01	100.004	199.985
11.2925	100.01	100.004	199.985
11.295	100.01	100.004	199.985
11.2975	100.01	100.004	199.985
11.3	100.01	100.004	199.985
11.3025	100.01	100.004	199.985
11.305	100.01	100.004	199.986
11.3075	100.01	100.004	199.986
11.31	100.01	100.004	199.986
11.3125	100.01	100.004	199.986
11.315	100.01	100.004	199.986
11.3175	100.01	100.005	199.986
11.32	100.01	100.005	199.986
11.3225	100.01	100.005	199.986
11.325	100.01	100.005	199.986
11.3275	100.01	100.005	199.986
11.33	100.01	100.005	199.986
11.3325	100.01	100.005	199.986
11.335	100.009	100.005	199.986
11.3375	100.009	100.005	199.986
11.34	100.009	100.005	199.986
11.3425	100.009	100.005	199.986
11.345	100.009	100.005	199.986
11.3475	100.009	100.005	199.986
11.35	100.009	100.005	199.986
11.3525	100.009	100.005	199.986
11.355	100.009	100.005	199.986
11.3575	100.009	100.005	199.986
11.36	100.009	100.005	199.986
11.3625	100.009	100.005	199.986
11.365	100.009	100.005	199.986
11.3675	100.009	100.005	199.986
11.37	100.009	100.005	199.986
11.3725	100.009	100.005	199.986
11.375	100.009	100.005	199.986
11.3775	100.009	100.005	199.986
11.38	100.009	100.005	199.986
11.3825	100.008	100.005	199.986
11.385	100.008	100.005	199.986
11.3875	100.008	100.005	199.986
11.39	100.008	100.005	199.987
11.3925	100.008	100.005	199.987
11.395	100.008	100.005	199.987
11.3975	100.008	100.005	199.987
11.4	100.008	100.005	199.987
11.4025	100.008	100.005	199.987
11.405	100.008	100.005	199.987
11.4075	100.008	100.005	199.987
11.41	100.008	100.005	199.987
11.4125	100.008	100.005	199.987
11.415	100.008	100.005	199.987
11.4175	100.008	100.005	199.987
11.42	100.008	100.005	199.987
11.4225	100.008	100.005	199.987
11.425	100.008	100.005	199.987
11.4275	100.008	100.005	199.987
11.43	100.008	100.005	199.987
11.4325	100.007	100.005	199.987
11.435	100.007	100.006	199.987
11.4375	100.007	100.006	199.987
11.44	100.007	100.006	199.987
11.4425	100.007	100.006	199.987
11.445	100.007	100.006	199.987
11.4475	100.007	100.006	199.987
11.45	100.007	100.006	199.987
11.4525	100.007	100.006	199.987
11.455	100.007	100.006	199.987
11.4575	100.007	100.006	199.987
11.46	100.007	100.006	199.987
11.4625	100.007	100.006	199.987
11.465	100.007	100.006	199.987
11.4675	100.007	100.006	199.987
11.47	100.007	100.006	199.987
11.4725	100.007	100.006	199.987
11.475	100.007	100.006	199.988
11.4775	100.007	100.006	199.988
11.48	100.007	100.006	199.988
11.4825	100.007	100.006	199.988
11.485	100.006	100.006	199.988
11.4875	100.006	100.006	199.988
11.49	100.006	100.006	199.988
11.4925	100.006	100.006	199.988
11.495	100.006	100.006	199.988
11.4975	100.006	100.006	199.988
11.5	100.006	100.006	199.988
11.5025	100.006	100.006	199.988
11.505	100.006	100.006	199.988
11.5075	100.006	100.006	199.988
11.51	100.006	100.006	199.988
11.5125	100.006	100.006	199.988
11.515	100.006	100.006	199.988
11.5175	100.006	100.006	199.988
11.52	100.006	100.006	199.988
11.5225	100.006	100.006	199.988
11.525	100.006	100.006	199.988
11.5275	100.006	100.006	199.988
11.53	100.006	100.006	199.988
11.5325	100.006	100.006	199.988
11.535	100.006	100.006	199.988
11.5375	100.006	100.006	199.988
11.54	100.006	100.006	199.988
11.5425	100.005	100.006	199.988
11.545	100.005	100.006	199.988
11.5475	100.005	100.006	199.988
11.55	100.005	100.006	199.988
11.5525	100.005	100.006	199.988
11.555	100.005	100.006	199.988
11.5575	100.005	100.006	199.989
11.56	100.005	100.006	199.989
11.5625	100.005	100.006	199.989
11.565	100.005	100.006	199.989
11.5675	100.005	100.006	199.989
11.57	100.005	100.006	199.989
11.5725	100.005	100.006	199.989
11.575	100.005	100.006	199.989
11.5775	100.005	100.006	199.989
11.58	100.005	100.006	199.989
11.5825	100.005	100.006	199.989
11.585	100.005	100.006	199.989
11.5875	100.005	100.006	199.989
11.59	100.005	100.006	199.989
11.5925	100.005	100.006	199.989
11.595	100.005	100.006	199.989
11.5975	100.005	100.006	199.989
11.6	100.004	100.006	199.989
11.6025	100.004	100.007	199.989
11.605	100.004	100.007	199.989
11.6075	100.004	100.007	199.989
11.61	100.004	100.007	199.989
11.6125	100.004	100.007	199.989
11.615	100.004	100.007	199.989
11.6175	100.004	100.007	199.989
11.62	100.004	100.007	199.989
11.6225	100.004	100.007	199.989
11.625	100.004	100.007	199.989
11.6275	100.004	100.007	199.989
11.63	100.004	100.007	199.989
11.6325	100.004	100.007	199.989
11.635	100.004	100.007	199.989
11.6375	100.004	100.007	199.989
11.64	100.004	100.007	199.99
11.6425	100.004	100.007	199.99
11.645	100.004	100.007	199.99
11.6475	100.004	100.007	199.99
11.65	100.004	100.007	199.99
11.6525	100.004	100.007	199.99
11.655	100.004	100.007	199.99
11.6575	100.004	100.007	199.99
11.66	100.004	100.007	199.99
11.6625	100.003	100.007	199.99
11.665	100.003	100.007	199.99
11.6675	100.003	100.007	199.99
11.67	100.003	100.007	199.99
11.6725	100.003	100.007	199.99
11.675	100.003	100.007	199.99
11.6775	100.003	100.007	199.99
11.68	100.003	100.007	199.99
11.6825	100.003	100.007	199.99
11.685	100.003	100.007	199.99
11.6875	100.003	100.007	199.99
11.69	100.003	100.007	199.99
11.6925	100.003	100.007	199.99
11.695	100.003	100.007	199.99
11.6975	100.003	100.007	199.99
11.7	100.003	100.007	199.99
11.7025	100.003	100.007	199.99
11.705	100.003	100.007	199.99
11.7075	100.003	100.007	199.99
11.71	100.003	100.007	199.99
11.7125	100.003	100.007	199.99
11.715	100.003	100.007	199.99
11.7175	100.003	100.007	199.99
11.72	100.003	100.007	199.99
11.7225	100.003	100.007	199.99
11.725	100.003	100.007	199.991
11.7275	100.003	100.007	199.991
11.73	100.002	100.007	199.991
11.7325	100.002	100.007	199.991
11.735	100.002	100.007	199.991
11.7375	100.002	100.007	199.991
11.74	100.002	100.007	199.991
11.7425	100.002	100.007	199.991
11.745	100.002	100.007	199.991
11.7475	100.002	100.007	199.991
11.75	100.002	100.007	199.991
11.7525	100.002	100.007	199.991
11.755	100.002	100.007	199.991
11.7575	100.002	100.007	199.991
11.76	100.002	100.007	199.991
11.7625	100.002	100.007	199.991
11.765	100.002	100.007	199.991
11.7675	100.002	100.007	199.991
11.77	100.002	100.007	199.991
11.7725	100.002	100.007	199.991
11.775	100.002	100.007	199.991
11.7775	100.002	100.007	199.991
11.78	100.002	100.007	199.991
11.7825	100.002	100.007	199.991
11.785	100.002	100.007	199.991
11.7875	100.002	100.007	199.991
11.79	100.002	100.007	199.991
11.7925	100.002	100.007	199.991
11.795	100.002	100.007	199.991
11.7975	100.002	100.007	199.991
11.8	100.002	100.007	199.991
11.8025	100.002	100.007	199.991
11.805	100.001	100.007	199.991
11.8075	100.001	100.007	199.991
11.81	100.001	100.007	199.991
11.8125	100.001	100.007	199.992
11.815	100.001	100.007	199.992
11.8175	100.001	100.007	199.992
11.82	100.001	100.007	199.992
11.8225	100.001	100.007	199.992
11.825	100.001	100.007	199.992
11.8275	100.001	100.007	199.992
11.83	100.001	100.007	199.992
11.8325	100.001	100.007	199.992
11.835	100.001	100.007	199.992
11.8375	100.001	100.007	199.992
11.84	100.001	100.007	199.992
11.8425	100.001	100.007	199.992
11.845	100.001	100.007	199.992
11.8475	100.001	100.007	199.992
11.85	100.001	100.007	199.992
11.8525	100.001	100.007	199.992
11.855	100.001	100.007	199.992
11.8575	100.001	100.007	199.992
11.86	100.001	100.007	199.992
11.8625	100.001	100.007	199.992
11.865	100.001	100.007	199.992
11.8675	100.001	100.007	199.992
11.87	100.001	100.007	199.992
11.8725	100.001	100.007	199.992
11.875	100.001	100.007	199.992
11.8775	100.001	100.007	199.992
11.88	100.001	100.007	199.992
11.8825	100.001	100.007	199.992
11.885	100.001	100.007	199.992
11.8875	100	100.007	199.992
11.89	100	100.007	199.992
11.8925	100	100.007	199.992
11.895	100	100.007	199.992
11.8975	100	100.007	199.992
11.9	100	100.007	199.992
11.9025	100	100.007	199.993
11.905	100	100.007	199.993
11.9075	100	100.007	199.993
11.91	100	100.007	199.993
11.9125	100	100.007	199.993
11.915	100	100.007	199.993
11.9175	100	100.007	199.993
11.92	100	100.007	199.993
11.9225	100	100.007	199.993
11.925	100	100.007	199.993
11.9275	100	100.007	199.993
11.93	100	100.007	199.993
11.9325	100	100.007	199.993
11.935	99.9999	100.007	199.993
11.9375	99.9999	100.007	199.993
11.94	99.9999	100.007	199.993
11.9425	99.9999	100.007	199.993
11.945	99.9998	100.007	199.993
11.9475	99.9998	100.007	199.993
11.95	99.9998	100.007	199.993
11.9525	99.9998	100.007	199.993
11.955	99.9997	100.007	199.993
11.9575	99.9997	100.007	199.993
11.96	99.9997	100.007	199.993
11.9625	99.9997	100.007	199.993
11.965	99.9996	100.007	199.993
11.9675	99.9996	100.007	199.993
11.97	99.9996	100.007	199.993
11.9725	99.9996	100.007	199.993
11.975	99.9995	100.007	199.993
11.9775	99.9995	100.007	199.993
11.98	99.9995	100.007	199.993
11.9825	99.9995	100.007	199.993
11.985	99.9994	100.007	199.993
11.9875	99.9994	100.007	199.993
11.99	99.9994	100.007	199.993
11.9925	99.9994	100.007	199.993
11.995	99.9993	100.007	199.994
11.9975	99.9993	100.007	199.994
12	99.9993	100.007	199.994
12.0025	99.9993	100.007	199.994
12.005	99.9992	100.007	199.994
12.0075	99.9992	100.007	199.994
12.01	99.9992	100.007	199.994
12.0125	99.9992	100.007	199.994
12.015	99.9991	100.007	199.994
12.0175	99.9991	100.007	199.994
12.02	99.9991	100.007	199.994
12.0225	99.9991	100.007	199.994
12.025	99.9991	100.007	199.994
12.0275	99.999	100.007	199.994
12.03	99.999	100.007	199.994
12.0325	99.999	100.007	199.994
12.035	99.999	100.007	199.994
12.0375	99.9989	100.007	199.994
12.04	99.9989	100.007	199.994
12.0425	99.9989	100.007	199.994
12.045	99.9989	100.007	199.994
12.0475	99.9988	100.007	199.994
12.05	99.9988	100.007	199.994
12.0525	99.9988	100.007	199.994
12.055	99.9988	100.007	199.994
12.0575	99.9988	100.007	199.994
12.06	99.9987	100.007	199.994
12.0625	99.9987	100.007	199.994
12.065	99.9987	100.007	199.994
12.0675	99.9987	100.007	199.994
12.07	99.9986	100.007	199.994
12.0725	99.9986	100.007	199.994
12.075	99.9986	100.007	199.994
12.0775	99.9986	100.007	199.994
12.08	99.9986	100.007	199.994
12.0825	99.9985	100.007	199.994
12.085	99.9985	100.007	199.994
12.0875	99.9985	100.007	199.994
12.09	99.9985	100.007	199.994
12.0925	99.9985	100.007	199.994
12.095	99.9984	100.007	199.995
12.0975	99.9984	100.007	199.995
12.1	99.9984	100.007	199.995
12.1025	99.9984	100.007	199.995
12.105	99.9984	100.007	199.995
12.1075	99.9983	100.007	199.995
12.11	99.9983	100.007	199.995
12.1125	99.9983	100.007	199.995
12.115	99.9983	100.007	199.995
12.1175	99.9983	100.007	199.995
12.12	99.9982	100.007	199.995
12.1225	99.9982	100.007	199.995
12.125	99.9982	100.007	199.995
12.1275	99.9982	100.007	199.995
12.13	99.9982	100.007	199.995
12.1325	99.9981	100.007	199.995
12.135	99.9981	100.007	199.995
12.1375	99.9981	100.007	199.995
12.14	99.9981	100.007	199.995
12.1425	99.9981	100.007	199.995
12.145	99.998	100.007	199.995
12.1475	99.998	100.007	199.995
12.15	99.998	100.007	199.995
12.1525	99.998	100.007	199.995
12.155	99.998	100.007	199.995
12.1575	99.998	100.007	199.995
12.16	99.9979	100.007	199.995
12.1625	99.9979	100.007	199.995
12.165	99.9979	100.007	199.995
12.1675	99.9979	100.007	199.995
12.17	99.9979	100.007	199.995
12.1725	99.9978	100.007	199.995
12.175	99.9978	100.007	199.995
12.1775	99.9978	100.007	199.995
12.18	99.9978	100.007	199.995
12.1825	99.9978	100.007	199.995
12.185	99.9978	100.007	199.995
12.1875	99.9977	100.007	199.995
12.19	99.9977	100.007	199.995
12.1925	99.9977	100.007	199.995
12.195	99.9977	100.007	199.995
12.1975	99.9977	100.007	199.995
12.2	99.9977	100.007	199.996
12.2025	99.9976	100.007	199.996
12.205	99.9976	100.007	199.996
12.2075	99.9976	100.007	199.996
12.21	99.9976	100.007	199.996
12.2125	99.9976	100.007	199.996
12.215	99.9976	100.007	199.996
12.2175	99.9975	100.007	199.996
12.22	99.9975	100.007	199.996
12.2225	99.9975	100.007	199.996
12.225	99.9975	100.007	199.996
12.2275	99.9975	100.007	199.996
12.23	99.9975	100.007	199.996
12.2325	99.9974	100.007	199.996
12.235	99.9974	100.007	199.996
12.2375	99.9974	100.007	199.996
12.24	99.9974	100.007	199.996
12.2425	99.9974	100.007	199.996
12.245	99.9974	100.007	199.996
12.2475	99.9973	100.007	199.996
12.25	99.9973	100.007	199.996
12.2525	99.9973	100.007	199.996
12.255	99.9973	100.007	199.996
12.2575	99.9973	100.007	199.996
12.26	99.9973	100.007	199.996
12.2625	99.9973	100.007	199.996
12.265	99.9972	100.007	199.996
12.2675	99.9972	100.007	199.996
12.27	99.9972	100.007	199.996
12.2725	99.9972	100.007	199.996
12.275	99.9972	100.007	199.996
12.2775	99.9972	100.007	199.996
12.28	99.9972	100.007	199.996
12.2825	99.9971	100.007	199.996
12.285	99.9971	100.007	199.996
12.2875	99.9971	100.007	199.996
12.29	99.9971	100.007	199.996
12.2925	99.9971	100.007	199.996
12.295	99.9971	100.007	199.996
12.2975	99.9971	100.007	199.996
12.3	99.997	100.007	199.996
12.3025	99.997	100.007	199.996
12.305	99.997	100.007	199.996
12.3075	99.997	100.007	199.996
12.31	99.997	100.007	199.996
12.3125	99.997	100.007	199.996
12.315	99.997	100.007	199.997
12.3175	99.997	100.007	199.997
12.32	99.9969	100.007	199.997
12.3225	99.9969	100.007	199.997
12.325	99.9969	100.006	199.997
12.3275	99.9969	100.006	199.997
12.33	99.9969	100.006	199.997
12.3325	99.9969	100.006	199.997
12.335	99.9969	100.006	199.997
12.3375	99.9969	100.006	199.997
12.34	99.9968	100.006	199.997
12.3425	99.9968	100.006	199.997
12.345	99.9968	100.006	199.997
12.3475	99.9968	100.006	199.997
12.35	99.9968	100.006	199.997
12.3525	99.9968	100.006	199.997
12.355	99.9968	100.006	199.997
12.3575	99.9968	100.006	199.997
12.36	99.9967	100.006	199.997
12.3625	99.9967	100.006	199.997
12.365	99.9967	100.006	199.997
12.3675	99.9967	100.006	199.997
12.37	99.9967	100.006	199.997
12.3725	99.9967	100.006	199.997
12.375	99.9967	100.006	199.997
12.3775	99.9967	100.006	199.997
12.38	99.9967	100.006	199.997
12.3825	99.9966	100.006	199.997
12.385	99.9966	100.006	199.997
12.3875	99.9966	100.006	199.997
12.39	99.9966	100.006	199.997
12.3925	99.9966	100.006	199.997
12.395	99.9966	100.006	199.997
12.3975	99.9966	100.006	199.997
12.4	99.9966	100.006	199.997
12.4025	99.9966	100.006	199.997
12.405	99.9965	100.006	199.997
12.4075	99.9965	100.006	199.997
12.41	99.9965	100.006	199.997
12.4125	99.9965	100.006	199.997
12.415	99.9965	100.006	199.997
12.4175	99.9965	100.006	199.997
12.42	99.9965	100.006	199.997
12.4225	99.9965	100.006	199.997
12.425	99.9965	100.006	199.997
12.4275	99.9965	100.006	199.997
12.43	99.9964	100.006	199.997
12.4325	99.9964	100.006	199.997
12.435	99.9964	100.006	199.997
12.4375	99.9964	100.006	199.997
12.44	99.9964	100.006	199.997
12.4425	99.9964	100.006	199.998
12.445	99.9964	100.006	199.998
12.4475	99.9964	100.006	199.998
12.45	99.9964	100.006	199.998
12.4525	99.9964	100.006	199.998
12.455	99.9963	100.006	199.998
12.4575	99.9963	100.006	199.998
12.46	99.9963	100.006	199.998
12.4625	99.9963	100.006	199.998
12.465	99.9963	100.006	199.998
12.4675	99.9963	100.006	199.998
12.47	99.9963	100.006	199.998
12.4725	99.9963	100.006	199.998
12.475	99.9963	100.006	199.998
12.4775	99.9963	100.006	199.998
12.48	99.9963	100.006	199.998
12.4825	99.9963	100.006	199.998
12.485	99.9962	100.006	199.998
12.4875	99.9962	100.006	199.998
12.49	99.9962	100.006	199.998
12.4925	99.9962	100.006	199.998
12.495	99.9962	100.006	199.998
12.4975	99.9962	100.006	199.998
12.5	99.9962	100.006	199.998
12.5025	99.9962	100.006	199.998
12.505	99.9962	100.006	199.998
12.5075	99.9962	100.006	199.998
12.51	99.9962	100.006	199.998
12.5125	99.9962	100.006	199.998
12.515	99.9962	100.006	199.998
12.5175	99.9961	100.006	199.998
12.52	99.9961	100.006	199.998
12.5225	99.9961	100.006	199.998
12.525	99.9961	100.006	199.998
12.5275	99.9961	100.006	199.998
12.53	99.9961	100.006	199.998
12.5325	99.9961	100.006	199.998
12.535	99.9961	100.006	199.998
12.5375	99.9961	100.006	199.998
12.54	99.9961	100.006	199.998
12.5425	99.9961	100.006	199.998
12.545	99.9961	100.006	199.998
12.5475	99.9961	100.006	199.998
12.55	99.9961	100.006	199.998
12.5525	99.996	100.006	199.998
12.555	99.996	100.006	199.998
12.5575	99.996	100.006	199.998
12.56	99.996	100.006	199.998
12.5625	99.996	100.006	199.998
12.565	99.996	100.006	199.998
12.5675	99.996	100.006	199.998
12.57	99.996	100.006	199.998
12.5725	99.996	100.006	199.998
12.575	99.996	100.006	199.998
12.5775	99.996	100.006	199.998
12.58	99.996	100.006	199.998
12.5825	99.996	100.006	199.998
12.585	99.996	100.006	199.998
12.5875	99.996	100.006	199.998
12.59	99.996	100.006	199.999
12.5925	99.996	100.006	199.999
12.595	99.9959	100.006	199.999
12.5975	99.9959	100.006	199.999
12.6	99.9959	100.005	199.999
12.6025	99.9959	100.005	199.999
12.605	99.9959	100.005	199.999
12.6075	99.9959	100.005	199.999
12.61	99.9959	100.005	199.999
12.6125	99.9959	100.005	199.999
12.615	99.9959	100.005	199.999
12.6175	99.9959	100.005	199.999
12.62	99.9959	100.005	199.999
12.6225	99.9959	100.005	199.999
12.625	99.9959	100.005	199.999
12.6275	99.9959	100.005	199.999
12.63	99.9959	100.005	199.999
12.6325	99.9959	100.005	199.999
12.635	99.9959	100.005	199.999
12.6375	99.9959	100.005	199.999
12.64	99.9959	100.005	199.999
12.6425	99.9959	100.005	199.999
12.645	99.9958	100.005	199.999
12.6475	99.9958	100.005	199.999
12.65	99.9958	100.005	199.999
12.6525	99.9958	100.005	199.999
12.655	99.9958	100.005	199.999
12.6575	99.9958	100.005	199.999
12.66	99.9958	100.005	199.999
12.6625	99.9958	100.005	199.999
12.665	99.9958	100.005	199.999
12.6675	99.9958	100.005	199.999
12.67	99.9958	100.005	199.999
12.6725	99.9958	100.005	199.999
12.675	99.9958	100.005	199.999
12.6775	99.9958	100.005	199.999
12.68	99.9958	100.005	199.999
12.6825	99.9958	100.005	199.999
12.685	99.9958	100.005	199.999
12.6875	99.9958	100.005	199.999
12.69	99.9958	100.005	199.999
12.6925	99.9958	100.005	199.999
12.695	99.9958	100.005	199.999
12.6975	99.9958	100.005	199.999
12.7	99.9958	100.005	199.999
12.7025	99.9958	100.005	199.999
12.705	99.9958	100.005	199.999
12.7075	99.9958	100.005	199.999
12.71	99.9958	100.005	199.999
12.7125	99.9957	100.005	199.999
12.715	99.9957	100.005	199.999
12.7175	99.9957	100.005	199.999
12.72	99.9957	100.005	199.999
12.7225	99.9957	100.005	199.999
12.725	99.9957	100.005	199.999
12.7275	99.9957	100.005	199.999
12.73	99.9957	100.005	199.999
12.7325	99.9957	100.005	199.999
12.735	99.9957	100.005	199.999
12.7375	99.9957	100.005	199.999
12.74	99.9957	100.005	199.999
12.7425	99.9957	100.005	199.999
12.745	99.9957	100.005	199.999
12.7475	99.9957	100.005	199.999
12.75	99.9957	100.005	199.999
12.7525	99.9957	100.005	199.999
12.755	99.9957	100.005	199.999
12.7575	99.9957	100.005	199.999
12.76	99.9957	100.005	199.999
12.7625	99.9957	100.005	199.999
12.765	99.9957	100.005	199.999
12.7675	99.9957	100.005	200
12.77	99.9957	100.005	200
12.7725	99.9957	100.005	200
12.775	99.9957	100.005	200
12.7775	99.9957	100.005	200
12.78	99.9957	100.005	200
12.7825	99.9957	100.005	200
12.785	99.9957	100.005	200
12.7875	99.9957	100.005	200
12.79	99.9957	100.005	200
12.7925	99.9957	100.005	200
12.795	99.9957	100.005	200
12.7975	99.9957	100.005	200
12.8	99.9957	100.005	200
12.8025	99.9957	100.005	200
12.805	99.9957	100.005	200
12.8075	99.9957	100.005	200
12.81	99.9957	100.005	200
12.8125	99.9957	100.005	200
12.815	99.9957	100.005	200
12.8175	99.9957	100.005	200
12.82	99.9957	100.005	200
12.8225	99.9957	100.005	200
12.825	99.9957	100.005	200
12.8275	99.9957	100.005	200
12.83	99.9957	100.005	200
12.8325	99.9957	100.005	200
12.835	99.9957	100.005	200
12.8375	99.9957	100.004	200
12.84	99.9957	100.004	200
12.8425	99.9957	100.004	200
12.845	99.9957	100.004	200
12.8475	99.9957	100.004	200
12.85	99.9957	100.004	200
12.8525	99.9957	100.004	200
12.855	99.9957	100.004	200
12.8575	99.9957	100.004	200
12.86	99.9957	100.004	200
12.8625	99.9957	100.004	200
12.865	99.9957	100.004	200
12.8675	99.9957	100.004	200
12.87	99.9957	100.004	200
12.8725	99.9957	100.004	200
12.875	99.9957	100.004	200
12.8775	99.9957	100.004	200
12.88	99.9957	100.004	200
12.8825	99.9957	100.004	200
12.885	99.9957	100.004	200
12.8875	99.9957	100.004	200
12.89	99.9957	100.004	200
12.8925	99.9957	100.004	200
12.895	99.9957	100.004	200
12.8975	99.9957	100.004	200
12.9	99.9957	100.004	200
12.9025	99.9957	100.004	200
12.905	99.9957	100.004	200
12.9075	99.9957	100.004	200
12.91	99.9957	100.004	200
12.9125	99.9957	100.004	200
12.915	99.9957	100.004	200
12.9175	99.9957	100.004	200
12.92	99.9957	100.004	200
12.9225	99.9957	100.004	200
12.925	99.9957	100.004	200
12.9275	99.9957	100.004	200
12.93	99.9957	100.004	200
12.9325	99.9957	100.004	200
12.935	99.9957	100.004	200
12.9375	99.9957	100.004	200
12.94	99.9957	100.004	200
12.9425	99.9957	100.004	200
12.945	99.9957	100.004	200
12.9475	99.9957	100.004	200
12.95	99.9957	100.004	200
12.9525	99.9957	100.004	200
12.955	99.9957	100.004	200
12.9575	99.9957	100.004	200
12.96	99.9957	100.004	200
12.9625	99.9957	100.004	200
12.965	99.9957	100.004	200
12.9675	99.9957	100.004	200
12.97	99.9957	100.004	200
12.9725	99.9957	100.004	200
12.975	99.9957	100.004	200
12.9775	99.9957	100.004	200
12.98	99.9957	100.004	200
12.9825	99.9957	100.004	200
12.985	99.9957	100.004	200
12.9875	99.9957	100.004	200
12.99	99.9957	100.004	200
12.9925	99.9957	100.004	200
12.995	99.9957	100.004	200
12.9975	99.9957	100.004	200
13	99.9957	100.004	200.001
13.0025	99.9957	100.004	200.001
13.005	99.9957	100.004	200.001
13.0075	99.9957	100.004	200.001
13.01	99.9957	100.004	200.001
13.0125	99.9957	100.004	200.001
13.015	99.9957	100.004	200.001
13.0175	99.9957	100.004	200.001
13.02	99.9957	100.004	200.001
13.0225	99.9957	100.004	200.001
13.025	99.9957	100.004	200.001
13.0275	99.9957	100.004	200.001
13.03	99.9957	100.004	200.001
13.0325	99.9957	100.004	200.001
13.035	99.9957	100.004	200.001
13.0375	99.9957	100.004	200.001
13.04	99.9957	100.004	200.001
13.0425	99.9957	100.004	200.001
13.045	99.9957	100.004	200.001
13.0475	99.9958	100.004	200.001
13.05	99.9958	100.004	200.001
13.0525	99.9958	100.004	200.001
13.055	99.9958	100.004	200.001
13.0575	99.9958	100.004	200.001
13.06	99.9958	100.004	200.001
13.0625	99.9958	100.004	200.001
13.065	99.9958	100.004	200.001
13.0675	99.9958	100.003	200.001
13.07	99.9958	100.003	200.001
13.0725	99.9958	100.003	200.001
13.075	99.9958	100.003	200.001
13.0775	99.9958	100.003	200.001
13.08	99.9958	100.003	200.001
13.0825	99.9958	100.003	200.001
13.085	99.9958	100.003	200.001
13.0875	99.9958	100.003	200.001
13.09	99.9958	100.003	200.001
13.0925	99.9958	100.003	200.001
13.095	99.9958	100.003	200.001
13.0975	99.9958	100.003	200.001
13.1	99.9958	100.003	200.001
13.1025	99.9958	100.003	200.001
13.105	99.9958	100.003	200.001
13.1075	99.9958	100.003	200.001
13.11	99.9958	100.003	200.001
13.1125	99.9958	100.003	200.001
13.115	99.9958	100.003	200.001
13.1175	99.9958	100.003	200.001
13.12	99.9958	100.003	200.001
13.1225	99.9958	100.003	200.001
13.125	99.9958	100.003	200.001
13.1275	99.9958	100.003	200.001
13.13	99.9958	100.003	200.001
13.1325	99.9959	100.003	200.001
13.135	99.9959	100.003	200.001
13.1375	99.9959	100.003	200.001
13.14	99.9959	100.003	200.001
13.1425	99.9959	100.003	200.001
13.145	99.9959	100.003	200.001
13.1475	99.9959	100.003	200.001
13.15	99.9959	100.003	200.001
13.1525	99.9959	100.003	200.001
13.155	99.9959	100.003	200.001
13.1575	99.9959	100.003	200.001
13.16	99.9959	100.003	200.001
13.1625	99.9959	100.003	200.001
13.165	99.9959	100.003	200.001
13.1675	99.9959	100.003	200.001
13.17	99.9959	100.003	200.001
13.1725	99.9959	100.003	200.001
13.175	99.9959	100.003	200.001
13.1775	99.9959	100.003	200.001
13.18	99.9959	100.003	200.001
13.1825	99.9959	100.003	200.001
13.185	99.9959	100.003	200.001
13.1875	99.9959	100.003	200.001
13.19	99.9959	100.003	200.001
13.1925	99.9959	100.003	200.001
13.195	99.9959	100.003	200.001
13.1975	99.996	100.003	200.001
13.2	99.996	100.003	200.001
13.2025	99.996	100.003	200.001
13.205	99.996	100.003	200.001
13.2075	99.996	100.003	200.001
13.21	99.996	100.003	200.001
13.2125	99.996	100.003	200.001
13.215	99.996	100.003	200.001
13.2175	99.996	100.003	200.001
13.22	99.996	100.003	200.001
13.2225	99.996	100.003	200.001
13.225	99.996	100.003	200.001
13.2275	99.996	100.003	200.001
13.23	99.996	100.003	200.001
13.2325	99.996	100.003	200.001
13.235	99.996	100.003	200.001
13.2375	99.996	100.003	200.001
13.24	99.996	100.003	200.001
13.2425	99.996	100.003	200.001
13.245	99.996	100.003	200.001
13.2475	99.996	100.003	200.001
13.25	99.996	100.003	200.001
13.2525	99.996	100.003	200.001
13.255	99.9961	100.003	200.001
13.2575	99.9961	100.003	200.001
13.26	99.9961	100.003	200.001
13.2625	99.9961	100.003	200.001
13.265	99.9961	100.003	200.001
13.2675	99.9961	100.003	200.001
13.27	99.9961	100.003	200.001
13.2725	99.9961	100.003	200.001
13.275	99.9961	100.003	200.001
13.2775	99.9961	100.003	200.001
13.28	99.9961	100.003	200.001
13.2825	99.9961	100.003	200.001
13.285	99.9961	100.003	200.001
13.2875	99.9961	100.003	200.001
13.29	99.9961	100.003	200.001
13.2925	99.9961	100.003	200.001
13.295	99.9961	100.003	200.001
13.2975	99.9961	100.003	200.001
13.3	99.9961	100.003	200.001
13.3025	99.9961	100.003	200.001
13.305	99.9961	100.003	200.001
13.3075	99.9962	100.003	200.001
13.31	99.9962	100.003	200.001
13.3125	99.9962	100.003	200.001
13.315	99.9962	100.002	200.001
13.3175	99.9962	100.002	200.001
13.32	99.9962	100.002	200.001
13.3225	99.9962	100.002	200.001
13.325	99.9962	100.002	200.001
13.3275	99.9962	100.002	200.001
13.33	99.9962	100.002	200.001
13.3325	99.9962	100.002	200.001
13.335	99.9962	100.002	200.001
13.3375	99.9962	100.002	200.001
13.34	99.9962	100.002	200.001
13.3425	99.9962	100.002	200.001
13.345	99.9962	100.002	200.001
13.3475	99.9962	100.002	200.001
13.35	99.9962	100.002	200.001
13.3525	99.9962	100.002	200.001
13.355	99.9962	100.002	200.001
13.3575	99.9963	100.002	200.001
13.36	99.9963	100.002	200.001
13.3625	99.9963	100.002	200.001
13.365	99.9963	100.002	200.001
13.3675	99.9963	100.002	200.001
13.37	99.9963	100.002	200.001
13.3725	99.9963	100.002	200.001
13.375	99.9963	100.002	200.001
13.3775	99.9963	100.002	200.001
13.38	99.9963	100.002	200.001
13.3825	99.9963	100.002	200.001
13.385	99.9963	100.002	200.001
13.3875	99.9963	100.002	200.001
13.39	99.9963	100.002	200.001
13.3925	99.9963	100.002	200.001
13.395	99.9963	100.002	200.001
13.3975	99.9963	100.002	200.001
13.4	99.9963	100.002	200.001
13.4025	99.9964	100.002	200.001
13.405	99.9964	100.002	200.001
13.4075	99.9964	100.002	200.001
13.41	99.9964	100.002	200.001
13.4125	99.9964	100.002	200.001
13.415	99.9964	100.002	200.001
13.4175	99.9964	100.002	200.002
13.42	99.9964	100.002	200.002
13.4225	99.9964	100.002	200.002
13.425	99.9964	100.002	200.002
13.4275	99.9964	100.002	200.002
13.43	99.9964	100.002	200.002
13.4325	99.9964	100.002	200.002
13.435	99.9964	100.002	200.002
13.4375	99.9964	100.002	200.002
13.44	99.9964	100.002	200.002
13.4425	99.9964	100.002	200.002
13.445	99.9964	100.002	200.002
13.4475	99.9965	100.002	200.002
13.45	99.9965	100.002	200.002
13.4525	99.9965	100.002	200.002
13.455	99.9965	100.002	200.002
13.4575	99.9965	100.002	200.002
13.46	99.9965	100.002	200.002
13.4625	99.9965	100.002	200.002
13.465	99.9965	100.002	200.002
13.4675	99.9965	100.002	200.002
13.47	99.9965	100.002	200.002
13.4725	99.9965	100.002	200.002
13.475	99.9965	100.002	200.002
13.4775	99.9965	100.002	200.002
13.48	99.9965	100.002	200.002
13.4825	99.9965	100.002	200.002
13.485	99.9965	100.002	200.002
13.4875	99.9965	100.002	200.002
13.49	99.9966	100.002	200.002
13.4925	99.9966	100.002	200.002
13.495	99.9966	100.002	200.002
13.4975	99.9966	100.002	200.002
13.5	99.9966	100.002	200.002
13.5025	99.9966	100.002	200.002
13.505	99.9966	100.002	200.002
13.5075	99.9966	100.002	200.002
13.51	99.9966	100.002	200.002
13.5125	99.9966	100.002	200.002
13.515	99.9966	100.002	200.002
13.5175	99.9966	100.002	200.002
13.52	99.9966	100.002	200.002
13.5225	99.9966	100.002	200.002
13.525	99.9966	100.002	200.002
13.5275	99.9966	100.002	200.002
13.53	99.9966	100.002	200.002
13.5325	99.9967	100.002	200.002
13.535	99.9967	100.002	200.002
13.5375	99.9967	100.002	200.002
13.54	99.9967	100.002	200.002
13.5425	99.9967	100.002	200.002
13.545	99.9967	100.002	200.002
13.5475	99.9967	100.002	200.002
13.55	99.9967	100.002	200.002
13.5525	99.9967	100.002	200.002
13.555	99.9967	100.002	200.002
13.5575	99.9967	100.002	200.002
13.56	99.9967	100.002	200.002
13.5625	99.9967	100.002	200.002
13.565	99.9967	100.002	200.002
13.5675	99.9967	100.002	200.002
13.57	99.9967	100.002	200.002
13.5725	99.9968	100.002	200.002
13.575	99.9968	100.002	200.002
13.5775	99.9968	100.002	200.002
13.58	99.9968	100.002	200.002
13.5825	99.9968	100.002	200.002
13.585	99.9968	100.002	200.002
13.5875	99.9968	100.002	200.002
13.59	99.9968	100.002	200.002
13.5925	99.9968	100.002	200.002
13.595	99.9968	100.002	200.002
13.5975	99.9968	100.002	200.002
13.6	99.9968	100.001	200.002
13.6025	99.9968	100.001	200.002
13.605	99.9968	100.001	200.002
13.6075	99.9968	100.001	200.002
13.61	99.9968	100.001	200.002
13.6125	99.9969	100.001	200.002
13.615	99.9969	100.001	200.002
13.6175	99.9969	100.001	200.002
13.62	99.9969	100.001	200.002
13.6225	99.9969	100.001	200.002
13.625	99.9969	100.001	200.002
13.6275	99.9969	100.001	200.002
13.63	99.9969	100.001	200.002
13.6325	99.9969	100.001	200.002
13.635	99.9969	100.001	200.002
13.6375	99.9969	100.001	200.002
13.64	99.9969	100.001	200.002
13.6425	99.9969	100.001	200.002
13.645	99.9969	100.001	200.002
13.6475	99.9969	100.001	200.002
13.65	99.997	100.001	200.002
13.6525	99.997	100.001	200.002
13.655	99.997	100.001	200.002
13.6575	99.997	100.001	200.002
13.66	99.997	100.001	200.002
13.6625	99.997	100.001	200.002
13.665	99.997	100.001	200.002
13.6675	99.997	100.001	200.002
13.67	99.997	100.001	200.002
13.6725	99.997	100.001	200.002
13.675	99.997	100.001	200.002
13.6775	99.997	100.001	200.002
13.68	99.997	100.001	200.002
13.6825	99.997	100.001	200.002
13.685	99.997	100.001	200.002
13.6875	99.997	100.001	200.002
13.69	99.9971	100.001	200.002
13.6925	99.9971	100.001	200.002
13.695	99.9971	100.001	200.002
13.6975	99.9971	100.001	200.002
13.7	99.9971	100.001	200.002
13.7025	99.9971	100.001	200.002
13.705	99.9971	100.001	200.002
13.7075	99.9971	100.001	200.002
13.71	99.9971	100.001	200.002
13.7125	99.9971	100.001	200.002
13.715	99.9971	100.001	200.002
13.7175	99.9971	100.001	200.002
13.72	99.9971	100.001	200.002
13.7225	99.9971	100.001	200.002
13.725	99.9971	100.001	200.002
13.7275	99.9972	100.001	200.002
13.73	99.9972	100.001	200.002
13.7325	99.9972	100.001	200.002
13.735	99.9972	100.001	200.002
13.7375	99.9972	100.001	200.002
13.74	99.9972	100.001	200.002
13.7425	99.9972	100.001	200.002
13.745	99.9972	100.001	200.002
13.7475	99.9972	100.001	200.002
13.75	99.9972	100.001	200.002
13.7525	99.9972	100.001	200.002
13.755	99.9972	100.001	200.002
13.7575	99.9972	100.001	200.002
13.76	99.9972	100.001	200.002
13.7625	99.9972	100.001	200.002
13.765	99.9972	100.001	200.002
13.7675	99.9973	100.001	200.002
13.77	99.9973	100.001	200.002
13.7725	99.9973	100.001	200.002
13.775	99.9973	100.001	200.002
13.7775	99.9973	100.001	200.002
13.78	99.9973	100.001	200.002
13.7825	99.9973	100.001	200.002
13.785	99.9973	100.001	200.002
13.7875	99.9973	100.001	200.002
13.79	99.9973	100.001	200.002
13.7925	99.9973	100.001	200.002
13.795	99.9973	100.001	200.002
13.7975	99.9973	100.001	200.002
13.8	99.9973	100.001	200.002
13.8025	99.9973	100.001	200.002
13.805	99.9974	100.001	200.002
13.8075	99.9974	100.001	200.002
13.81	99.9974	100.001	200.002
13.8125	99.9974	100.001	200.002
13.815	99.9974	100.001	200.002
13.8175	99.9974	100.001	200.002
13.82	99.9974	100.001	200.002
13.8225	99.9974	100.001	200.002
13.825	99.9974	100.001	200.002
13.8275	99.9974	100.001	200.002
13.83	99.9974	100.001	200.002
13.8325	99.9974	100.001	200.002
13.835	99.9974	100.001	200.002
13.8375	99.9974	100.001	200.002
13.84	99.9974	100.001	200.002
13.8425	99.9975	100.001	200.002
13.845	99.9975	100.001	200.002
13.8475	99.9975	100.001	200.002
13.85	99.9975	100.001	200.002
13.8525	99.9975	100.001	200.002
13.855	99.9975	100.001	200.002
13.8575	99.9975	100.001	200.002
13.86	99.9975	100.001	200.002
13.8625	99.9975	100.001	200.002
13.865	99.9975	100.001	200.002
13.8675	99.9975	100.001	200.002
13.87	99.9975	100.001	200.002
13.8725	99.9975	100.001	200.002
13.875	99.9975	100.001	200.002
13.8775	99.9975	100.001	200.002
13.88	99.9976	100.001	200.002
13.8825	99.9976	100.001	200.002
13.885	99.9976	100.001	200.002
13.8875	99.9976	100.001	200.002
13.89	99.9976	100.001	200.002
13.8925	99.9976	100.001	200.002
13.895	99.9976	100.001	200.002
13.8975	99.9976	100.001	200.002
13.9	99.9976	100.001	200.002
13.9025	99.9976	100.001	200.002
13.905	99.9976	100.001	200.002
13.9075	99.9976	100.001	200.002
13.91	99.9976	100.001	200.002
13.9125	99.9976	100.001	200.002
13.915	99.9976	100.001	200.002
13.9175	99.9976	100.001	200.002
13.92	99.9977	100.001	200.002
13.9225	99.9977	100.001	200.002
13.925	99.9977	100.001	200.002
13.9275	99.9977	100.001	200.002
13.93	99.9977	100.001	200.002
13.9325	99.9977	100.001	200.002
13.935	99.9977	100.001	200.002
13.9375	99.9977	100.001	200.002
13.94	99.9977	100.001	200.002
13.9425	99.9977	100.001	200.002
13.945	99.9977	100.001	200.002
13.9475	99.9977	100.001	200.002
13.95	99.9977	100.001	200.002
13.9525	99.9977	100.001	200.002
13.955	99.9977	100.001	200.002
13.9575	99.9978	100.001	200.002
13.96	99.9978	100.001	200.002
13.9625	99.9978	100.001	200.002
13.965	99.9978	100.001	200.002
13.9675	99.9978	100.001	200.002
13.97	99.9978	100	200.002
13.9725	99.9978	100	200.002
13.975	99.9978	100	200.002
13.9775	99.9978	100	200.002
13.98	99.9978	100	200.002
13.9825	99.9978	100	200.002
13.985	99.9978	100	200.002
13.9875	99.9978	100	200.002
13.99	99.9978	100	200.002
13.9925	99.9978	100	200.002
13.995	99.9978	100	200.002
13.9975	99.9979	100	200.002
14	99.9979	100	200.002
14.0025	99.9979	100	200.002
14.005	99.9979	100	200.002
14.0075	99.9979	100	200.002
14.01	99.9979	100	200.002
14.0125	99.9979	100	200.002
14.015	99.9979	100	200.002
14.0175	99.9979	100	200.002
14.02	99.9979	100	200.002
14.0225	99.9979	100	200.002
14.025	99.9979	100	200.002
14.0275	99.9979	100	200.002
14.03	99.9979	100	200.002
14.0325	99.9979	100	200.002
14.035	99.998	100	200.002
14.0375	99.998	100	200.002
14.04	99.998	100	200.002
14.0425	99.998	100	200.002
14.045	99.998	100	200.002
14.0475	99.998	100	200.002
14.05	99.998	100	200.002
14.0525	99.998	100	200.002
14.055	99.998	100	200.002
14.0575	99.998	100	200.002
14.06	99.998	100	200.002
14.0625	99.998	100	200.002
14.065	99.998	100	200.002
14.0675	99.998	100	200.002
14.07	99.998	100	200.002
14.0725	99.998	100	200.002
14.075	99.9981	100	200.002
14.0775	99.9981	100	200.002
14.08	99.9981	100	200.002
14.0825	99.9981	100	200.002
14.085	99.9981	100	200.002
14.0875	99.9981	100	200.002
14.09	99.9981	100	200.002
14.0925	99.9981	100	200.002
14.095	99.9981	100	200.002
14.0975	99.9981	100	200.002
14.1	99.9981	100	200.002
14.1025	99.9981	100	200.002
14.105	99.9981	100	200.002
14.1075	99.9981	100	200.002
14.11	99.9981	100	200.002
14.1125	99.9981	100	200.002
14.115	99.9982	100	200.002
14.1175	99.9982	100	200.002
14.12	99.9982	100	200.002
14.1225	99.9982	100	200.002
14.125	99.9982	100	200.002
14.1275	99.9982	100	200.002
14.13	99.9982	100	200.002
14.1325	99.9982	100	200.002
14.135	99.9982	100	200.002
14.1375	99.9982	100	200.002
14.14	99.9982	100	200.002
14.1425	99.9982	100	200.002
14.145	99.9982	100	200.002
14.1475	99.9982	100	200.002
14.15	99.9982	100	200.002
14.1525	99.9982	100	200.002
14.155	99.9982	100	200.002
14.1575	99.9983	100	200.002
14.16	99.9983	100	200.002
14.1625	99.9983	100	200.002
14.165	99.9983	100	200.002
14.1675	99.9983	100	200.002
14.17	99.9983	100	200.002
14.1725	99.9983	100	200.002
14.175	99.9983	100	200.002
14.1775	99.9983	100	200.002
14.18	99.9983	100	200.002
14.1825	99.9983	100	200.002
14.185	99.9983	100	200.002
14.1875	99.9983	100	200.002
14.19	99.9983	100	200.002
14.1925	99.9983	100	200.002
14.195	99.9983	100	200.002
14.1975	99.9984	100	200.002
14.2	99.9984	100	200.002
14.2025	99.9984	100	200.002
14.205	99.9984	100	200.002
14.2075	99.9984	100	200.002
14.21	99.9984	100	200.002
14.2125	99.9984	100	200.002
14.215	99.9984	100	200.002
14.2175	99.9984	100	200.002
14.22	99.9984	100	200.002
14.2225	99.9984	100	200.002
14.225	99.9984	100	200.002
14.2275	99.9984	100	200.002
14.23	99.9984	100	200.002
14.2325	99.9984	100	200.002
14.235	99.9984	100	200.002
14.2375	99.9984	100	200.002
14.24	99.9985	100	200.002
14.2425	99.9985	100	200.002
14.245	99.9985	100	200.002
14.2475	99.9985	100	200.002
14.25	99.9985	100	200.002
14.2525	99.9985	100	200.002
14.255	99.9985	100	200.002
14.2575	99.9985	100	200.002
14.26	99.9985	100	200.002
14.2625	99.9985	100	200.002
14.265	99.9985	100	200.002
14.2675	99.9985	99.9999	200.002
14.27	99.9985	99.9999	200.002
14.2725	99.9985	99.9999	200.002
14.275	99.9985	99.9999	200.002
14.2775	99.9985	99.9999	200.002
14.28	99.9985	99.9999	200.002
14.2825	99.9986	99.9999	200.002
14.285	99.9986	99.9999	200.002
14.2875	99.9986	99.9999	200.002
14.29	99.9986	99.9999	200.002
14.2925	99.9986	99.9999	200.002
14.295	99.9986	99.9999	200.002
14.2975	99.9986	99.9999	200.002
14.3	99.9986	99.9999	200.002
14.3025	99.9986	99.9999	200.002
14.305	99.9986	99.9999	200.002
14.3075	99.9986	99.9999	200.002
14.31	99.9986	99.9999	200.002
14.3125	99.9986	99.9999	200.001
14.315	99.9986	99.9999	200.001
14.3175	99.9986	99.9999	200.001
14.32	99.9986	99.9999	200.001
14.3225	99.9986	99.9999	200.001
14.325	99.9986	99.9999	200.001
14.3275	99.9987	99.9999	200.001
14.33	99.9987	99.9999	200.001
14.3325	99.9987	99.9999	200.001
14.335	99.9987	99.9999	200.001
14.3375	99.9987	99.9998	200.001
14.34	99.9987	99.9998	200.001
14.3425	99.9987	99.9998	200.001
14.345	99.9987	99.9998	200.001
14.3475	99.9987	99.9998	200.001
14.35	99.9987	99.9998	200.001
14.3525	99.9987	99.9998	200.001
14.355	99.9987	99.9998	200.001
14.3575	99.9987	99.9998	200.001
14.36	99.9987	99.9998	200.001
14.3625	99.9987	99.9998	200.001
14.365	99.9987	99.9998	200.001
14.3675	99.9987	99.9998	200.001
14.37	99.9987	99.9998	200.001
14.3725	99.9988	99.9998	200.001
14.375	99.9988	99.9998	200.001
14.3775	99.9988	99.9998	200.001
14.38	99.9988	99.9998	200.001
14.3825	99.9988	99.9998	200.001
14.385	99.9988	99.9998	200.001
14.3875	99.9988	99.9998	200.001
14.39	99.9988	99.9998	200.001
14.3925	99.9988	99.9998	200.001
14.395	99.9988	99.9998	200.001
14.3975	99.9988	99.9998	200.001
14.4	99.9988	99.9998	200.001
14.4025	99.9988	99.9998	200.001
14.405	99.9988	99.9998	200.001
14.4075	99.9988	99.9998	200.001
14.41	99.9988	99.9998	200.001
14.4125	99.9988	99.9998	200.001
14.415	99.9988	99.9998	200.001
14.4175	99.9988	99.9998	200.001
14.42	99.9989	99.9997	200.001
14.4225	99.9989	99.9997	200.001
14.425	99.9989	99.9997	200.001
14.4275	99.9989	99.9997	200.001
14.43	99.9989	99.9997	200.001
14.4325	99.9989	99.9997	200.001
14.435	99.9989	99.9997	200.001
14.4375	99.9989	99.9997	200.001
14.44	99.9989	99.9997	200.001
14.4425	99.9989	99.9997	200.001
14.445	99.9989	99.9997	200.001
14.4475	99.9989	99.9997	200.001
14.45	99.9989	99.9997	200.001
14.4525	99.9989	99.9997	200.001
14.455	99.9989	99.9997	200.001
14.4575	99.9989	99.9997	200.001
14.46	99.9989	99.9997	200.001
14.4625	99.9989	99.9997	200.001
14.465	99.9989	99.9997	200.001
14.4675	99.999	99.9997	200.001
14.47	99.999	99.9997	200.001
14.4725	99.999	99.9997	200.001
14.475	99.999	99.9997	200.001
14.4775	99.999	99.9997	200.001
14.48	99.999	99.9997	200.001
14.4825	99.999	99.9997	200.001
14.485	99.999	99.9997	200.001
14.4875	99.999	99.9997	200.001
14.49	99.999	99.9997	200.001
14.4925	99.999	99.9997	200.001
14.495	99.999	99.9997	200.001
14.4975	99.999	99.9997	200.001
14.5	99.999	99.9997	200.001
14.5025	99.999	99.9997	200.001
14.505	99.999	99.9997	200.001
14.5075	99.999	99.9997	200.001
14.51	99.999	99.9997	200.001
14.5125	99.999	99.9997	200.001
14.515	99.999	99.9996	200.001
14.5175	99.9991	99.9996	200.001
14.52	99.9991	99.9996	200.001
14.5225	99.9991	99.9996	200.001
14.525	99.9991	99.9996	200.001
14.5275	99.9991	99.9996	200.001
14.53	99.9991	99.9996	200.001
14.5325	99.9991	99.9996	200.001
14.535	99.9991	99.9996	200.001
14.5375	99.9991	99.9996	200.001
14.54	99.9991	99.9996	200.001
14.5425	99.9991	99.9996	200.001
14.545	99.9991	99.9996	200.001
14.5475	99.9991	99.9996	200.001
14.55	99.9991	99.9996	200.001
14.5525	99.9991	99.9996	200.001
14.555	99.9991	99.9996	200.001
14.5575	99.9991	99.9996	200.001
14.56	99.9991	99.9996	200.001
14.5625	99.9991	99.9996	200.001
14.565	99.9991	99.9996	200.001
14.5675	99.9991	99.9996	200.001
14.57	99.9992	99.9996	200.001
14.5725	99.9992	99.9996	200.001
14.575	99.9992	99.9996	200.001
14.5775	99.9992	99.9996	200.001
14.58	99.9992	99.9996	200.001
14.5825	99.9992	99.9996	200.001
14.585	99.9992	99.9996	200.001
14.5875	99.9992	99.9996	200.001
14.59	99.9992	99.9996	200.001
14.5925	99.9992	99.9996	200.001
14.595	99.9992	99.9996	200.001
14.5975	99.9992	99.9996	200.001
14.6	99.9992	99.9996	200.001
14.6025	99.9992	99.9996	200.001
14.605	99.9992	99.9996	200.001
14.6075	99.9992	99.9996	200.001
14.61	99.9992	99.9996	200.001
14.6125	99.9992	99.9996	200.001
14.615	99.9992	99.9996	200.001
14.6175	99.9992	99.9996	200.001
14.62	99.9992	99.9996	200.001
14.6225	99.9992	99.9996	200.001
14.625	99.9993	99.9996	200.001
14.6275	99.9993	99.9996	200.001
14.63	99.9993	99.9996	200.001
14.6325	99.9993	99.9995	200.001
14.635	99.9993	99.9995	200.001
14.6375	99.9993	99.9995	200.001
14.64	99.9993	99.9995	200.001
14.6425	99.9993	99.9995	200.001
14.645	99.9993	99.9995	200.001
14.6475	99.9993	99.9995	200.001
14.65	99.9993	99.9995	200.001
14.6525	99.9993	99.9995	200.001
14.655	99.9993	99.9995	200.001
14.6575	99.9993	99.9995	200.001
14.66	99.9993	99.9995	200.001
14.6625	99.9993	99.9995	200.001
14.665	99.9993	99.9995	200.001
14.6675	99.9993	99.9995	200.001
14.67	99.9993	99.9995	200.001
14.6725	99.9993	99.9995	200.001
14.675	99.9993	99.9995	200.001
14.6775	99.9993	99.9995	200.001
14.68	99.9993	99.9995	200.001
14.6825	99.9994	99.9995	200.001
14.685	99.9994	99.9995	200.001
14.6875	99.9994	99.9995	200.001
14.69	99.9994	99.9995	200.001
14.6925	99.9994	99.9995	200.001
14.695	99.9994	99.9995	200.001
14.6975	99.9994	99.9995	200.001
14.7	99.9994	99.9995	200.001
14.7025	99.9994	99.9995	200.001
14.705	99.9994	99.9995	200.001
14.7075	99.9994	99.9995	200.001
14.71	99.9994	99.9995	200.001
14.7125	99.9994	99.9995	200.001
14.715	99.9994	99.9995	200.001
14.7175	99.9994	99.9995	200.001
14.72	99.9994	99.9995	200.001
14.7225	99.9994	99.9995	200.001
14.725	99.9994	99.9995	200.001
14.7275	99.9994	99.9995	200.001
14.73	99.9994	99.9995	200.001
14.7325	99.9994	99.9995	200.001
14.735	99.9994	99.9995	200.001
14.7375	99.9994	99.9995	200.001
14.74	99.9994	99.9995	200.001
14.7425	99.9995	99.9995	200.001
14.745	99.9995	99.9995	200.001
14.7475	99.9995	99.9995	200.001
14.75	99.9995	99.9995	200.001
14.7525	99.9995	99.9995	200.001
14.755	99.9995	99.9995	200.001
14.7575	99.9995	99.9995	200.001
14.76	99.9995	99.9995	200.001
14.7625	99.9995	99.9995	200.001
14.765	99.9995	99.9995	200.001
14.7675	99.9995	99.9995	200.001
14.77	99.9995	99.9995	200.001
14.7725	99.9995	99.9995	200.001
14.775	99.9995	99.9995	200.001
14.7775	99.9995	99.9995	200.001
14.78	99.9995	99.9995	200.001
14.7825	99.9995	99.9995	200.001
14.785	99.9995	99.9995	200.001
14.7875	99.9995	99.9995	200.001
14.79	99.9995	99.9995	200.001
14.7925	99.9995	99.9995	200.001
14.795	99.9995	99.9995	200.001
14.7975	99.9995	99.9995	200.001
14.8	99.9995	99.9994	200.001
14.8025	99.9995	99.9994	200.001
14.805	99.9995	99.9994	200.001
14.8075	99.9996	99.9994	200.001
14.81	99.9996	99.9994	200.001
14.8125	99.9996	99.9994	200.001
14.815	99.9996	99.9994	200.001
14.8175	99.9996	99.9994	200.001
14.82	99.9996	99.9994	200.001
14.8225	99.9996	99.9994	200.001
14.825	99.9996	99.9994	200.001
14.8275	99.9996	99.9994	200.001
14.83	99.9996	99.9994	200.001
14.8325	99.9996	99.9994	200.001
14.835	99.9996	99.9994	200.001
14.8375	99.9996	99.9994	200.001
14.84	99.9996	99.9994	200.001
14.8425	99.9996	99.9994	200.001
14.845	99.9996	99.9994	200.001
14.8475	99.9996	99.9994	200.001
14.85	99.9996	99.9994	200.001
14.8525	99.9996	99.9994	200.001
14.855	99.9996	99.9994	200.001
14.8575	99.9996	99.9994	200.001
14.86	99.9996	99.9994	200.001
14.8625	99.9996	99.9994	200.001
14.865	99.9996	99.9994	200.001
14.8675	99.9996	99.9994	200.001
14.87	99.9996	99.9994	200.001
14.8725	99.9996	99.9994	200.001
14.875	99.9997	99.9994	200.001
14.8775	99.9997	99.9994	200.001
14.88	99.9997	99.9994	200.001
14.8825	99.9997	99.9994	200.001
14.885	99.9997	99.9994	200.001
14.8875	99.9997	99.9994	200.001
14.89	99.9997	99.9994	200.001
14.8925	99.9997	99.9994	200.001
14.895	99.9997	99.9994	200.001
14.8975	99.9997	99.9994	200.001
14.9	99.9997	99.9994	200.001
14.9025	99.9997	99.9994	200.001
14.905	99.9997	99.9994	200.001
14.9075	99.9997	99.9994	200.001
14.91	99.9997	99.9994	200.001
14.9125	99.9997	99.9994	200.001
14.915	99.9997	99.9994	200.001
14.9175	99.9997	99.9994	200.001
14.92	99.9997	99.9994	200.001
14.9225	99.9997	99.9994	200.001
14.925	99.9997	99.9994	200.001
14.9275	99.9997	99.9994	200.001
14.93	99.9997	99.9994	200.001
14.9325	99.9997	99.9994	200.001
14.935	99.9997	99.9994	200.001
14.9375	99.9997	99.9994	200.001
14.94	99.9997	99.9994	200.001
14.9425	99.9997	99.9994	200.001
14.945	99.9997	99.9994	200.001
14.9475	99.9997	99.9994	200.001
14.95	99.9998	99.9994	200.001
14.9525	99.9998	99.9994	200.001
14.955	99.9998	99.9994	200.001
14.9575	99.9998	99.9994	200.001
14.96	99.9998	99.9994	200.001
14.9625	99.9998	99.9994	200.001
14.965	99.9998	99.9994	200.001
14.9675	99.9998	99.9994	200.001
14.97	99.9998	99.9994	200.001
14.9725	99.9998	99.9994	200.001
14.975	99.9998	99.9994	200.001
14.9775	99.9998	99.9994	200.001
14.98	99.9998	99.9994	200.001
14.9825	99.9998	99.9994	200.001
14.985	99.9998	99.9994	200.001
14.9875	99.9998	99.9994	200.001
14.99	99.9998	99.9994	200.001
14.9925	99.9998	99.9994	200.001
14.995	99.9998	99.9994	200.001
14.9975	99.9998	99.9994	200.001
15	99.9998	99.9994	200.001
