# N = 400
# (S0, I0, R0) = (5, 101.25, 293.75)
# (a, b, c) = (4, 1, 0.5)
# time, S, I, R
0	5	101.25	293.75
0.0025	5.35403	101.01	293.636
0.005	5.70705	100.772	293.521
0.0075	6.05907	100.535	293.406
0.01	6.41011	100.3	293.29
0.0125	6.76015	100.066	293.174
0.015	7.10922	99.8333	293.058
0.0175	7.45731	99.6021	292.941
0.02	7.80443	99.3724	292.823
0.0225	8.15059	99.144	292.705
0.025	8.4958	98.9171	292.587
0.0275	8.84004	98.6915	292.468
0.03	9.18335	98.4672	292.349
0.0325	9.52571	98.2443	292.23
0.035	9.86713	98.0228	292.11
0.0375	10.2076	97.8026	291.99
0.04	10.5472	97.5837	291.869
0.0425	10.8858	97.3661	291.748
0.045	11.2236	97.1499	291.627
0.0475	11.5604	96.9349	291.505
0.05	11.8963	96.7212	291.382
0.0525	12.2313	96.5088	291.26
0.055	12.5654	96.2977	291.137
0.0575	12.8987	96.0878	291.014
0.06	13.231	95.8792	290.89
0.0625	13.5624	95.6719	290.766
0.065	13.893	95.4657	290.641
0.0675	14.2227	95.2609	290.516
0.07	14.5516	95.0572	290.391
0.0725	14.8796	94.8547	290.266
0.075	15.2067	94.6535	290.14
0.0775	15.5329	94.4534	290.014
0.08	15.8583	94.2546	289.887
0.0825	16.1829	94.0569	289.76
0.085	16.5066	93.8604	289.633
0.0875	16.8295	93.6651	289.505
0.09	17.1516	93.4709	289.378
0.0925	17.4728	93.2779	289.249
0.095	17.7932	93.086	289.121
0.0975	18.1128	92.8952	288.992
0.1	18.4316	92.7056	288.863
0.1025	18.7495	92.5172	288.733
0.105	19.0667	92.3298	288.604
0.1075	19.383	92.1435	288.473
0.11	19.6986	91.9584	288.343
0.1125	20.0133	91.7743	288.212
0.115	20.3273	91.5913	288.081
0.1175	20.6404	91.4094	287.95
0.12	20.9528	91.2286	287.819
0.1225	21.2644	91.0489	287.687
0.125	21.5752	90.8702	287.555
0.1275	21.8853	90.6925	287.422
0.13	22.1945	90.516	287.29
0.1325	22.503	90.3404	287.157
0.135	22.8108	90.1659	287.023
0.1375	23.1177	89.9924	286.89
0.14	23.424	89.82	286.756
0.1425	23.7294	89.6485	286.622
0.145	24.0342	89.4781	286.488
0.1475	24.3381	89.3087	286.353
0.15	24.6414	89.1402	286.218
0.1525	24.9439	88.9728	286.083
0.155	25.2456	88.8063	285.948
0.1575	25.5466	88.6408	285.813
0.16	25.8469	88.4763	285.677
0.1625	26.1465	88.3128	285.541
0.165	26.4453	88.1502	285.404
0.1675	26.7434	87.9886	285.268
0.17	27.0408	87.8279	285.131
0.1725	27.3375	87.6682	284.994
0.175	27.6335	87.5094	284.857
0.1775	27.9287	87.3516	284.72
0.18	28.2233	87.1947	284.582
0.1825	28.5172	87.0386	284.444
0.185	28.8103	86.8836	284.306
0.1875	29.1028	86.7294	284.168
0.19	29.3945	86.5761	284.029
0.1925	29.6856	86.4237	283.891
0.195	29.976	86.2723	283.752
0.1975	30.2657	86.1217	283.613
0.2	30.5547	85.972	283.473
0.2025	30.843	85.8232	283.334
0.205	31.1307	85.6752	283.194
0.2075	31.4176	85.5282	283.054
0.21	31.7039	85.3819	282.914
0.2125	31.9896	85.2366	282.774
0.215	32.2745	85.0921	282.633
0.2175	32.5589	84.9484	282.493
0.22	32.8425	84.8056	282.352
0.2225	33.1255	84.6637	282.211
0.225	33.4078	84.5225	282.07
0.2275	33.6895	84.3823	281.928
0.23	33.9705	84.2428	281.787
0.2325	34.2508	84.1041	281.645
0.235	34.5306	83.9663	281.503
0.2375	34.8096	83.8293	281.361
0.24	35.0881	83.693	281.219
0.2425	35.3658	83.5576	281.077
0.245	35.643	83.423	280.934
0.2475	35.9195	83.2892	280.791
0.25	36.1954	83.1561	280.648
0.2525	36.4706	83.0239	280.505
0.255	36.7453	82.8924	280.362
0.2575	37.0192	82.7617	280.219
0.26	37.2926	82.6318	280.076
0.2625	37.5654	82.5026	279.932
0.265	37.8375	82.3743	279.788
0.2675	38.109	82.2466	279.644
0.27	38.3799	82.1197	279.5
0.2725	38.6501	81.9936	279.356
0.275	38.9198	81.8682	279.212
0.2775	39.1889	81.7436	279.068
0.28	39.4573	81.6197	278.923
0.2825	39.7251	81.4965	278.778
0.285	39.9924	81.3741	278.634
0.2875	40.259	81.2524	278.489
0.29	40.525	81.1314	278.344
0.2925	40.7905	81.0111	278.198
0.295	41.0553	80.8915	278.053
0.2975	41.3196	80.7727	277.908
0.3	41.5832	80.6545	277.762
0.3025	41.8463	80.5371	277.617
0.305	42.1087	80.4204	277.471
0.3075	42.3706	80.3043	277.325
0.31	42.6319	80.189	277.179
0.3125	42.8927	80.0743	277.033
0.315	43.1528	79.9603	276.887
0.3175	43.4123	79.847	276.741
0.32	43.6713	79.7344	276.594
0.3225	43.9297	79.6225	276.448
0.325	44.1876	79.5112	276.301
0.3275	44.4448	79.4006	276.155
0.33	44.7015	79.2906	276.008
0.3325	44.9576	79.1813	275.861
0.335	45.2132	79.0727	275.714
0.3375	45.4681	78.9647	275.567
0.34	45.7226	78.8574	275.42
0.3425	45.9764	78.7507	275.273
0.345	46.2297	78.6447	275.126
0.3475	46.4824	78.5393	274.978
0.35	46.7346	78.4345	274.831
0.3525	46.9862	78.3304	274.683
0.355	47.2373	78.2269	274.536
0.3575	47.4878	78.124	274.388
0.36	47.7378	78.0218	274.24
0.3625	47.9872	77.9201	274.093
0.365	48.236	77.8191	273.945
0.3675	48.4844	77.7187	273.797
0.37	48.7321	77.6189	273.649
0.3725	48.9794	77.5198	273.501
0.375	49.226	77.4212	273.353
0.3775	49.4722	77.3232	273.205
0.38	49.7178	77.2258	273.056
0.3825	49.9629	77.1291	272.908
0.385	50.2074	77.0329	272.76
0.3875	50.4514	76.9373	272.611
0.39	50.6948	76.8423	272.463
0.3925	50.9378	76.7478	272.314
0.395	51.1801	76.654	272.166
0.3975	51.422	76.5607	272.017
0.4	51.6633	76.468	271.869
0.4025	51.9042	76.3759	271.72
0.405	52.1444	76.2844	271.571
0.4075	52.3842	76.1934	271.422
0.41	52.6234	76.103	271.274
0.4125	52.8621	76.0131	271.125
0.415	53.1003	75.9238	270.976
0.4175	53.338	75.8351	270.827
0.42	53.5751	75.7469	270.678
0.4225	53.8118	75.6592	270.529
0.425	54.0479	75.5721	270.38
0.4275	54.2835	75.4856	270.231
0.43	54.5186	75.3996	270.082
0.4325	54.7532	75.3141	269.933
0.435	54.9872	75.2292	269.784
0.4375	55.2208	75.1448	269.634
0.44	55.4539	75.061	269.485
0.4425	55.6864	74.9776	269.336
0.445	55.9184	74.8948	269.187
0.4475	56.15	74.8126	269.037
0.45	56.381	74.7308	268.888
0.4525	56.6115	74.6496	268.739
0.455	56.8415	74.5689	268.59
0.4575	57.0711	74.4887	268.44
0.46	57.3001	74.409	268.291
0.4625	57.5286	74.3298	268.142
0.465	57.7566	74.2511	267.992
0.4675	57.9842	74.173	267.843
0.47	58.2112	74.0953	267.693
0.4725	58.4377	74.0182	267.544
0.475	58.6638	73.9415	267.395
0.4775	58.8893	73.8653	267.245
0.48	59.1144	73.7897	267.096
0.4825	59.339	73.7145	266.947
0.485	59.5631	73.6398	266.797
0.4875	59.7867	73.5656	266.648
0.49	60.0098	73.4919	266.498
0.4925	60.2324	73.4187	266.349
0.495	60.4545	73.3459	266.2
0.4975	60.6762	73.2736	266.05
0.5	60.8974	73.2018	265.901
0.5025	61.118	73.1305	265.751
0.505	61.3383	73.0597	265.602
0.5075	61.558	72.9893	265.453
0.51	61.7772	72.9194	265.303
0.5125	61.996	72.8499	265.154
0.515	62.2143	72.7809	265.005
0.5175	62.4321	72.7124	264.855
0.52	62.6495	72.6444	264.706
0.5225	62.8663	72.5767	264.557
0.525	63.0827	72.5096	264.408
0.5275	63.2986	72.4429	264.258
0.53	63.5141	72.3767	264.109
0.5325	63.7291	72.3109	263.96
0.535	63.9436	72.2455	263.811
0.5375	64.1576	72.1806	263.662
0.54	64.3712	72.1162	263.513
0.5425	64.5843	72.0521	263.364
0.545	64.7969	71.9886	263.215
0.5475	65.0091	71.9254	263.065
0.55	65.2208	71.8627	262.916
0.5525	65.432	71.8005	262.767
0.555	65.6428	71.7386	262.619
0.5575	65.8531	71.6772	262.47
0.56	66.063	71.6163	262.321
0.5625	66.2724	71.5557	262.172
0.565	66.4813	71.4956	262.023
0.5675	66.6898	71.4359	261.874
0.57	66.8978	71.3766	261.726
0.5725	67.1053	71.3178	261.577
0.575	67.3124	71.2593	261.428
0.5775	67.5191	71.2013	261.28
0.58	67.7253	71.1437	261.131
0.5825	67.931	71.0865	260.983
0.585	68.1363	71.0297	260.834
0.5875	68.3411	70.9733	260.686
0.59	68.5455	70.9173	260.537
0.5925	68.7494	70.8618	260.389
0.595	68.9529	70.8066	260.241
0.5975	69.1559	70.7519	260.092
0.6	69.3584	70.6975	259.944
0.6025	69.5606	70.6436	259.796
0.605	69.7622	70.59	259.648
0.6075	69.9634	70.5368	259.5
0.61	70.1642	70.4841	259.352
0.6125	70.3646	70.4317	259.204
0.615	70.5644	70.3797	259.056
0.6175	70.7639	70.3281	258.908
0.62	70.9629	70.2769	258.76
0.6225	71.1614	70.2261	258.613
0.625	71.3595	70.1756	258.465
0.6275	71.5572	70.1256	258.317
0.63	71.7544	70.0759	258.17
0.6325	71.9512	70.0266	258.022
0.635	72.1476	69.9777	257.875
0.6375	72.3435	69.9292	257.727
0.64	72.5389	69.881	257.58
0.6425	72.734	69.8332	257.433
0.645	72.9286	69.7858	257.286
0.6475	73.1227	69.7387	257.139
0.65	73.3164	69.6921	256.992
0.6525	73.5097	69.6458	256.845
0.655	73.7026	69.5998	256.698
0.6575	73.895	69.5542	256.551
0.66	74.0869	69.509	256.404
0.6625	74.2785	69.4642	256.257
0.665	74.4696	69.4197	256.111
0.6675	74.6603	69.3756	255.964
0.67	74.8505	69.3318	255.818
0.6725	75.0404	69.2884	255.671
0.675	75.2297	69.2453	255.525
0.6775	75.4187	69.2026	255.379
0.68	75.6072	69.1603	255.232
0.6825	75.7953	69.1183	255.086
0.685	75.983	69.0766	254.94
0.6875	76.1703	69.0353	254.794
0.69	76.3571	68.9944	254.649
0.6925	76.5435	68.9538	254.503
0.695	76.7294	68.9135	254.357
0.6975	76.915	68.8736	254.211
0.7	77.1001	68.834	254.066
0.7025	77.2848	68.7948	253.92
0.705	77.469	68.7559	253.775
0.7075	77.6529	68.7173	253.63
0.71	77.8363	68.6791	253.485
0.7125	78.0193	68.6412	253.339
0.715	78.2019	68.6036	253.194
0.7175	78.3841	68.5664	253.05
0.72	78.5658	68.5295	252.905
0.7225	78.7471	68.493	252.76
0.725	78.928	68.4568	252.615
0.7275	79.1085	68.4209	252.471
0.73	79.2886	68.3853	252.326
0.7325	79.4682	68.35	252.182
0.735	79.6474	68.3151	252.037
0.7375	79.8262	68.2805	251.893
0.74	80.0046	68.2462	251.749
0.7425	80.1826	68.2123	251.605
0.745	80.3602	68.1787	251.461
0.7475	80.5373	68.1453	251.317
0.75	80.7141	68.1123	251.174
0.7525	80.8904	68.0797	251.03
0.755	81.0663	68.0473	250.886
0.7575	81.2418	68.0152	250.743
0.76	81.4169	67.9835	250.6
0.7625	81.5915	67.9521	250.456
0.765	81.7658	67.921	250.313
0.7675	81.9396	67.8901	250.17
0.77	82.1131	67.8596	250.027
0.7725	82.2861	67.8295	249.884
0.775	82.4587	67.7996	249.742
0.7775	82.6309	67.77	249.599
0.78	82.8027	67.7407	249.457
0.7825	82.9741	67.7117	249.314
0.785	83.1451	67.6831	249.172
0.7875	83.3157	67.6547	249.03
0.79	83.4858	67.6266	248.888
0.7925	83.6556	67.5989	248.746
0.795	83.8249	67.5714	248.604
0.7975	83.9939	67.5442	248.462
0.8	84.1624	67.5173	248.32
0.8025	84.3306	67.4908	248.179
0.805	84.4983	67.4645	248.037
0.8075	84.6656	67.4385	247.896
0.81	84.8325	67.4128	247.755
0.8125	84.9991	67.3873	247.614
0.815	85.1652	67.3622	247.473
0.8175	85.3309	67.3374	247.332
0.82	85.4962	67.3128	247.191
0.8225	85.6611	67.2886	247.05
0.825	85.8256	67.2646	246.91
0.8275	85.9898	67.2409	246.769
0.83	86.1535	67.2175	246.629
0.8325	86.3168	67.1943	246.489
0.835	86.4797	67.1715	246.349
0.8375	86.6422	67.1489	246.209
0.84	86.8043	67.1267	246.069
0.8425	86.966	67.1046	245.929
0.845	87.1273	67.0829	245.79
0.8475	87.2883	67.0615	245.65
0.85	87.4488	67.0403	245.511
0.8525	87.6089	67.0194	245.372
0.855	87.7686	66.9988	245.233
0.8575	87.928	66.9784	245.094
0.86	88.0869	66.9583	244.955
0.8625	88.2455	66.9385	244.816
0.865	88.4036	66.919	244.677
0.8675	88.5614	66.8997	244.539
0.87	88.7187	66.8807	244.401
0.8725	88.8757	66.862	244.262
0.875	89.0322	66.8436	244.124
0.8775	89.1884	66.8254	243.986
0.88	89.3442	66.8074	243.848
0.8825	89.4996	66.7898	243.711
0.885	89.6546	66.7724	243.573
0.8875	89.8092	66.7552	243.436
0.89	89.9634	66.7384	243.298
0.8925	90.1173	66.7217	243.161
0.895	90.2707	66.7054	243.024
0.8975	90.4237	66.6893	242.887
0.9	90.5764	66.6734	242.75
0.9025	90.7287	66.6579	242.613
0.905	90.8805	66.6425	242.477
0.9075	91.032	66.6275	242.34
0.91	91.1831	66.6127	242.204
0.9125	91.3338	66.5981	242.068
0.915	91.4842	66.5838	241.932
0.9175	91.6341	66.5698	241.796
0.92	91.7837	66.556	241.66
0.9225	91.9328	66.5424	241.525
0.925	92.0816	66.5291	241.389
0.9275	92.23	66.5161	241.254
0.93	92.378	66.5033	241.119
0.9325	92.5256	66.4907	240.984
0.935	92.6728	66.4784	240.849
0.9375	92.8197	66.4664	240.714
0.94	92.9662	66.4546	240.579
0.9425	93.1122	66.443	240.445
0.945	93.2579	66.4317	240.31
0.9475	93.4033	66.4206	240.176
0.95	93.5482	66.4098	240.042
0.9525	93.6927	66.3992	239.908
0.955	93.8369	66.3888	239.774
0.9575	93.9807	66.3787	239.641
0.96	94.1241	66.3689	239.507
0.9625	94.2671	66.3592	239.374
0.965	94.4097	66.3498	239.24
0.9675	94.552	66.3407	239.107
0.97	94.6939	66.3318	238.974
0.9725	94.8354	66.3231	238.842
0.975	94.9765	66.3146	238.709
0.9775	95.1172	66.3064	238.576
0.98	95.2576	66.2985	238.444
0.9825	95.3976	66.2907	238.312
0.985	95.5372	66.2832	238.18
0.9875	95.6764	66.2759	238.048
0.99	95.8152	66.2689	237.916
0.9925	95.9537	66.2621	237.784
0.995	96.0918	66.2555	237.653
0.9975	96.2295	66.2491	237.521
1	96.3668	66.243	237.39
1.0025	96.5038	66.2371	237.259
1.005	96.6404	66.2314	237.128
1.0075	96.7766	66.226	236.997
1.01	96.9124	66.2207	236.867
1.0125	97.0479	66.2157	236.736
1.015	97.183	66.211	236.606
1.0175	97.3177	66.2064	236.476
1.02	97.452	66.2021	236.346
1.0225	97.586	66.198	236.216
1.025	97.7195	66.1941	236.086
1.0275	97.8527	66.1904	235.957
1.03	97.9856	66.187	235.827
1.0325	98.118	66.1838	235.698
1.035	98.2501	66.1808	235.569
1.0375	98.3819	66.178	235.44
1.04	98.5132	66.1754	235.311
1.0425	98.6442	66.173	235.183
1.045	98.7748	66.1709	235.054
1.0475	98.905	66.169	234.926
1.05	99.0349	66.1673	234.798
1.0525	99.1644	66.1658	234.67
1.055	99.2935	66.1645	234.542
1.0575	99.4222	66.1635	234.414
1.06	99.5506	66.1626	234.287
1.0625	99.6786	66.162	234.159
1.065	99.8063	66.1616	234.032
1.0675	99.9335	66.1613	233.905
1.07	100.06	66.1613	233.778
1.0725	100.187	66.1615	233.651
1.075	100.313	66.1619	233.525
1.0775	100.439	66.1626	233.398
1.08	100.564	66.1634	233.272
1.0825	100.689	66.1644	233.146
1.085	100.814	66.1657	233.02
1.0875	100.938	66.1671	232.894
1.09	101.062	66.1688	232.769
1.0925	101.186	66.1706	232.643
1.095	101.309	66.1727	232.518
1.0975	101.432	66.175	232.393
1.1	101.555	66.1774	232.268
1.1025	101.677	66.1801	232.143
1.105	101.799	66.183	232.018
1.1075	101.92	66.1861	231.894
1.11	102.041	66.1894	231.77
1.1125	102.162	66.1928	231.646
1.115	102.282	66.1965	231.522
1.1175	102.402	66.2004	231.398
1.12	102.522	66.2045	231.274
1.1225	102.641	66.2087	231.151
1.125	102.76	66.2132	231.027
1.1275	102.878	66.2179	230.904
1.13	102.996	66.2227	230.781
1.1325	103.114	66.2278	230.658
1.135	103.231	66.233	230.536
1.1375	103.349	66.2385	230.413
1.14	103.465	66.2441	230.291
1.1425	103.582	66.25	230.168
1.145	103.698	66.256	230.046
1.1475	103.813	66.2622	229.925
1.15	103.928	66.2686	229.803
1.1525	104.043	66.2752	229.681
1.155	104.158	66.282	229.56
1.1575	104.272	66.289	229.439
1.16	104.386	66.2962	229.318
1.1625	104.499	66.3035	229.197
1.165	104.612	66.3111	229.077
1.1675	104.725	66.3188	228.956
1.17	104.837	66.3268	228.836
1.1725	104.95	66.3349	228.716
1.175	105.061	66.3432	228.596
1.1775	105.173	66.3517	228.476
1.18	105.283	66.3603	228.356
1.1825	105.394	66.3692	228.237
1.185	105.504	66.3782	228.117
1.1875	105.614	66.3875	227.998
1.19	105.724	66.3969	227.879
1.1925	105.833	66.4065	227.761
1.195	105.942	66.4162	227.642
1.1975	106.05	66.4262	227.524
1.2	106.158	66.4363	227.405
1.2025	106.266	66.4467	227.287
1.205	106.373	66.4572	227.169
1.2075	106.481	66.4678	227.052
1.21	106.587	66.4787	226.934
1.2125	106.694	66.4897	226.817
1.215	106.8	66.5009	226.699
1.2175	106.905	66.5123	226.582
1.22	107.011	66.5239	226.466
1.2225	107.115	66.5357	226.349
1.225	107.22	66.5476	226.232
1.2275	107.324	66.5597	226.116
1.23	107.428	66.572	226
1.2325	107.532	66.5844	225.884
1.235	107.635	66.597	225.768
1.2375	107.738	66.6098	225.652
1.24	107.84	66.6228	225.537
1.2425	107.942	66.636	225.422
1.245	108.044	66.6493	225.307
1.2475	108.146	66.6628	225.192
1.25	108.247	66.6764	225.077
1.2525	108.347	66.6902	224.962
1.255	108.448	66.7043	224.848
1.2575	108.548	66.7184	224.734
1.26	108.647	66.7328	224.62
1.2625	108.747	66.7473	224.506
1.265	108.846	66.762	224.392
1.2675	108.944	66.7768	224.279
1.27	109.043	66.7918	224.165
1.2725	109.141	66.807	224.052
1.275	109.238	66.8224	223.939
1.2775	109.336	66.8379	223.827
1.28	109.432	66.8536	223.714
1.2825	109.529	66.8694	223.602
1.285	109.625	66.8854	223.489
1.2875	109.721	66.9016	223.377
1.29	109.817	66.9179	223.265
1.2925	109.912	66.9344	223.154
1.295	110.007	66.9511	223.042
1.2975	110.101	66.9679	222.931
1.3	110.195	66.9849	222.82
1.3025	110.289	67.0021	222.709
1.305	110.383	67.0194	222.598
1.3075	110.476	67.0369	222.487
1.31	110.569	67.0545	222.377
1.3125	110.661	67.0723	222.267
1.315	110.753	67.0903	222.157
1.3175	110.845	67.1084	222.047
1.32	110.936	67.1267	221.937
1.3225	111.027	67.1451	221.827
1.325	111.118	67.1637	221.718
1.3275	111.209	67.1824	221.609
1.33	111.299	67.2013	221.5
1.3325	111.388	67.2204	221.391
1.335	111.478	67.2396	221.283
1.3375	111.567	67.259	221.174
1.34	111.655	67.2785	221.066
1.3425	111.744	67.2982	220.958
1.345	111.832	67.318	220.85
1.3475	111.92	67.338	220.742
1.35	112.007	67.3581	220.635
1.3525	112.094	67.3784	220.528
1.355	112.181	67.3989	220.421
1.3575	112.267	67.4195	220.314
1.36	112.353	67.4402	220.207
1.3625	112.439	67.4611	220.1
1.365	112.524	67.4822	219.994
1.3675	112.609	67.5034	219.888
1.37	112.694	67.5248	219.782
1.3725	112.778	67.5463	219.676
1.375	112.862	67.5679	219.57
1.3775	112.945	67.5897	219.465
1.38	113.029	67.6117	219.36
1.3825	113.112	67.6338	219.254
1.385	113.194	67.656	219.15
1.3875	113.277	67.6784	219.045
1.39	113.359	67.7009	218.94
1.3925	113.44	67.7236	218.836
1.395	113.522	67.7464	218.732
1.3975	113.603	67.7694	218.628
1.4	113.683	67.7925	218.524
1.4025	113.764	67.8158	218.421
1.405	113.844	67.8392	218.317
1.4075	113.923	67.8628	218.214
1.41	114.003	67.8864	218.111
1.4125	114.082	67.9103	218.008
1.415	114.16	67.9343	217.905
1.4175	114.239	67.9584	217.803
1.42	114.317	67.9826	217.701
1.4225	114.394	68.007	217.599
1.425	114.472	68.0316	217.497
1.4275	114.549	68.0563	217.395
1.43	114.625	68.0811	217.294
1.4325	114.702	68.1061	217.192
1.435	114.778	68.1312	217.091
1.4375	114.853	68.1564	216.99
1.44	114.929	68.1818	216.889
1.4425	115.004	68.2073	216.789
1.445	115.079	68.2329	216.689
1.4475	115.153	68.2587	216.588
1.45	115.227	68.2847	216.488
1.4525	115.301	68.3107	216.389
1.455	115.374	68.3369	216.289
1.4575	115.447	68.3633	216.19
1.46	115.52	68.3897	216.09
1.4625	115.592	68.4163	215.991
1.465	115.665	68.4431	215.892
1.4675	115.736	68.4699	215.794
1.47	115.808	68.4969	215.695
1.4725	115.879	68.5241	215.597
1.475	115.95	68.5513	215.499
1.4775	116.02	68.5787	215.401
1.48	116.09	68.6063	215.303
1.4825	116.16	68.6339	215.206
1.485	116.23	68.6617	215.108
1.4875	116.299	68.6897	215.011
1.49	116.368	68.7177	214.914
1.4925	116.437	68.7459	214.818
1.495	116.505	68.7742	214.721
1.4975	116.573	68.8026	214.625
1.5	116.64	68.8312	214.528
1.5025	116.708	68.8599	214.432
1.505	116.775	68.8887	214.337
1.5075	116.841	68.9177	214.241
1.51	116.908	68.9468	214.146
1.5125	116.974	68.976	214.05
1.515	117.039	69.0053	213.955
1.5175	117.105	69.0348	213.861
1.52	117.17	69.0644	213.766
1.5225	117.234	69.0941	213.672
1.525	117.299	69.1239	213.577
1.5275	117.363	69.1538	213.483
1.53	117.427	69.1839	213.389
1.5325	117.49	69.2141	213.296
1.535	117.553	69.2445	213.202
1.5375	117.616	69.2749	213.109
1.54	117.679	69.3055	213.016
1.5425	117.741	69.3362	212.923
1.545	117.803	69.367	212.83
1.5475	117.864	69.3979	212.738
1.55	117.926	69.429	212.645
1.5525	117.987	69.4601	212.553
1.555	118.047	69.4914	212.461
1.5575	118.108	69.5228	212.369
1.56	118.168	69.5544	212.278
1.5625	118.227	69.586	212.187
1.565	118.287	69.6178	212.095
1.5675	118.346	69.6497	212.004
1.57	118.405	69.6817	211.914
1.5725	118.463	69.7138	211.823
1.575	118.521	69.746	211.733
1.5775	118.579	69.7784	211.642
1.58	118.637	69.8109	211.552
1.5825	118.694	69.8435	211.463
1.585	118.751	69.8761	211.373
1.5875	118.808	69.909	211.284
1.59	118.864	69.9419	211.194
1.5925	118.92	69.9749	211.105
1.595	118.976	70.0081	211.016
1.5975	119.031	70.0414	210.928
1.6	119.086	70.0747	210.839
1.6025	119.141	70.1082	210.751
1.605	119.195	70.1418	210.663
1.6075	119.249	70.1755	210.575
1.61	119.303	70.2094	210.487
1.6125	119.357	70.2433	210.4
1.615	119.41	70.2774	210.313
1.6175	119.463	70.3115	210.225
1.62	119.516	70.3458	210.139
1.6225	119.568	70.3802	210.052
1.625	119.62	70.4146	209.965
1.6275	119.672	70.4492	209.879
1.63	119.723	70.4839	209.793
1.6325	119.774	70.5187	209.707
1.635	119.825	70.5537	209.621
1.6375	119.876	70.5887	209.536
1.64	119.926	70.6238	209.45
1.6425	119.976	70.659	209.365
1.645	120.025	70.6944	209.28
1.6475	120.075	70.7298	209.195
1.65	120.124	70.7654	209.111
1.6525	120.172	70.801	209.026
1.655	120.221	70.8368	208.942
1.6575	120.269	70.8726	208.858
1.66	120.317	70.9086	208.775
1.6625	120.364	70.9447	208.691
1.665	120.412	70.9808	208.608
1.6675	120.459	71.0171	208.524
1.67	120.505	71.0535	208.441
1.6725	120.552	71.09	208.358
1.675	120.598	71.1265	208.276
1.6775	120.643	71.1632	208.193
1.68	120.689	71.2	208.111
1.6825	120.734	71.2369	208.029
1.685	120.779	71.2738	207.947
1.6875	120.823	71.3109	207.866
1.69	120.868	71.3481	207.784
1.6925	120.912	71.3854	207.703
1.695	120.955	71.4227	207.622
1.6975	120.999	71.4602	207.541
1.7	121.042	71.4978	207.46
1.7025	121.085	71.5354	207.38
1.705	121.127	71.5732	207.3
1.7075	121.17	71.611	207.219
1.71	121.211	71.649	207.14
1.7125	121.253	71.687	207.06
1.715	121.295	71.7252	206.98
1.7175	121.336	71.7634	206.901
1.72	121.376	71.8017	206.822
1.7225	121.417	71.8401	206.743
1.725	121.457	71.8786	206.664
1.7275	121.497	71.9172	206.586
1.73	121.537	71.9559	206.507
1.7325	121.576	71.9947	206.429
1.735	121.615	72.0336	206.351
1.7375	121.654	72.0726	206.273
1.74	121.692	72.1116	206.196
1.7425	121.731	72.1508	206.119
1.745	121.769	72.19	206.041
1.7475	121.806	72.2294	205.964
1.75	121.844	72.2688	205.888
1.7525	121.881	72.3083	205.811
1.755	121.917	72.3479	205.735
1.7575	121.954	72.3876	205.658
1.76	121.99	72.4274	205.582
1.7625	122.026	72.4672	205.507
1.765	122.062	72.5072	205.431
1.7675	122.097	72.5472	205.356
1.77	122.132	72.5873	205.28
1.7725	122.167	72.6275	205.205
1.775	122.202	72.6678	205.13
1.7775	122.236	72.7082	205.056
1.78	122.27	72.7487	204.981
1.7825	122.304	72.7892	204.907
1.785	122.337	72.8298	204.833
1.7875	122.37	72.8705	204.759
1.79	122.403	72.9113	204.686
1.7925	122.436	72.9522	204.612
1.795	122.468	72.9932	204.539
1.7975	122.5	73.0342	204.466
1.8	122.532	73.0753	204.393
1.8025	122.563	73.1165	204.32
1.805	122.595	73.1578	204.248
1.8075	122.626	73.1992	204.175
1.81	122.656	73.2406	204.103
1.8125	122.687	73.2822	204.031
1.815	122.717	73.3238	203.959
1.8175	122.747	73.3654	203.888
1.82	122.776	73.4072	203.817
1.8225	122.806	73.449	203.745
1.825	122.835	73.491	203.674
1.8275	122.863	73.5329	203.604
1.83	122.892	73.575	203.533
1.8325	122.92	73.6172	203.463
1.835	122.948	73.6594	203.392
1.8375	122.976	73.7017	203.323
1.84	123.003	73.744	203.253
1.8425	123.03	73.7865	203.183
1.845	123.057	73.829	203.114
1.8475	123.084	73.8716	203.044
1.85	123.11	73.9143	202.975
1.8525	123.136	73.957	202.907
1.855	123.162	73.9998	202.838
1.8575	123.188	74.0427	202.769
1.86	123.213	74.0857	202.701
1.8625	123.238	74.1287	202.633
1.865	123.263	74.1718	202.565
1.8675	123.287	74.215	202.498
1.87	123.312	74.2582	202.43
1.8725	123.336	74.3015	202.363
1.875	123.359	74.3449	202.296
1.8775	123.383	74.3884	202.229
1.88	123.406	74.4319	202.162
1.8825	123.429	74.4755	202.096
1.885	123.452	74.5191	202.029
1.8875	123.474	74.5629	201.963
1.89	123.496	74.6066	201.897
1.8925	123.518	74.6505	201.831
1.895	123.54	74.6944	201.766
1.8975	123.561	74.7384	201.7
1.9	123.582	74.7825	201.635
1.9025	123.603	74.8266	201.57
1.905	123.624	74.8708	201.505
1.9075	123.644	74.915	201.441
1.91	123.664	74.9593	201.376
1.9125	123.684	75.0037	201.312
1.915	123.704	75.0482	201.248
1.9175	123.723	75.0927	201.184
1.92	123.742	75.1372	201.121
1.9225	123.761	75.1819	201.057
1.925	123.78	75.2266	200.994
1.9275	123.798	75.2713	200.931
1.93	123.816	75.3161	200.868
1.9325	123.834	75.361	200.805
1.935	123.851	75.4059	200.743
1.9375	123.869	75.4509	200.68
1.94	123.886	75.496	200.618
1.9425	123.903	75.5411	200.556
1.945	123.919	75.5863	200.495
1.9475	123.935	75.6315	200.433
1.95	123.952	75.6768	200.372
1.9525	123.967	75.7221	200.311
1.955	123.983	75.7675	200.25
1.9575	123.998	75.813	200.189
1.96	124.013	75.8585	200.128
1.9625	124.028	75.904	200.068
1.965	124.043	75.9497	200.007
1.9675	124.057	75.9953	199.947
1.97	124.071	76.0411	199.888
1.9725	124.085	76.0869	199.828
1.975	124.099	76.1327	199.768
1.9775	124.112	76.1786	199.709
1.98	124.125	76.2246	199.65
1.9825	124.138	76.2706	199.591
1.985	124.151	76.3166	199.532
1.9875	124.163	76.3627	199.474
1.99	124.176	76.4089	199.416
1.9925	124.188	76.4551	199.357
1.995	124.199	76.5013	199.299
1.9975	124.211	76.5476	199.242
2	124.222	76.594	199.184
2.0025	124.233	76.6404	199.127
2.005	124.244	76.6868	199.069
2.0075	124.254	76.7334	199.012
2.01	124.264	76.7799	198.956
2.0125	124.275	76.8265	198.899
2.015	124.284	76.8732	198.842
2.0175	124.294	76.9198	198.786
2.02	124.303	76.9666	198.73
2.0225	124.312	77.0134	198.674
2.025	124.321	77.0602	198.619
2.0275	124.33	77.1071	198.563
2.03	124.338	77.154	198.508
2.0325	124.347	77.201	198.452
2.035	124.355	77.248	198.398
2.0375	124.362	77.295	198.343
2.04	124.37	77.3421	198.288
2.0425	124.377	77.3893	198.234
2.045	124.384	77.4365	198.179
2.0475	124.391	77.4837	198.125
2.05	124.397	77.531	198.072
2.0525	124.404	77.5783	198.018
2.055	124.41	77.6256	197.964
2.0575	124.416	77.673	197.911
2.06	124.422	77.7204	197.858
2.0625	124.427	77.7679	197.805
2.065	124.432	77.8154	197.752
2.0675	124.437	77.863	197.7
2.07	124.442	77.9106	197.647
2.0725	124.447	77.9582	197.595
2.075	124.451	78.0059	197.543
2.0775	124.455	78.0536	197.491
2.08	124.459	78.1013	197.44
2.0825	124.463	78.1491	197.388
2.085	124.466	78.1969	197.337
2.0875	124.469	78.2447	197.286
2.09	124.472	78.2926	197.235
2.0925	124.475	78.3405	197.184
2.095	124.478	78.3885	197.134
2.0975	124.48	78.4365	197.083
2.1	124.482	78.4845	197.033
2.1025	124.484	78.5325	196.983
2.105	124.486	78.5806	196.933
2.1075	124.487	78.6287	196.884
2.11	124.489	78.6769	196.834
2.1125	124.49	78.7251	196.785
2.115	124.491	78.7733	196.736
2.1175	124.491	78.8215	196.687
2.12	124.492	78.8698	196.638
2.1225	124.492	78.9181	196.59
2.125	124.492	78.9665	196.542
2.1275	124.492	79.0148	196.493
2.13	124.491	79.0632	196.445
2.1325	124.491	79.1116	196.398
2.135	124.49	79.1601	196.35
2.1375	124.489	79.2086	196.303
2.14	124.488	79.2571	196.255
2.1425	124.486	79.3056	196.208
2.145	124.485	79.3542	196.161
2.1475	124.483	79.4028	196.115
2.15	124.481	79.4514	196.068
2.1525	124.478	79.5	196.022
2.155	124.476	79.5487	195.975
2.1575	124.473	79.5974	195.929
2.16	124.47	79.6461	195.884
2.1625	124.467	79.6948	195.838
2.165	124.464	79.7436	195.792
2.1675	124.46	79.7924	195.747
2.17	124.457	79.8412	195.702
2.1725	124.453	79.89	195.657
2.175	124.449	79.9388	195.612
2.1775	124.444	79.9877	195.568
2.18	124.44	80.0366	195.523
2.1825	124.435	80.0855	195.479
2.185	124.43	80.1344	195.435
2.1875	124.425	80.1834	195.391
2.19	124.42	80.2324	195.348
2.1925	124.415	80.2814	195.304
2.195	124.409	80.3304	195.261
2.1975	124.403	80.3794	195.218
2.2	124.397	80.4284	195.175
2.2025	124.391	80.4775	195.132
2.205	124.384	80.5266	195.089
2.2075	124.378	80.5757	195.047
2.21	124.371	80.6248	195.004
2.2125	124.364	80.6739	194.962
2.215	124.357	80.7231	194.92
2.2175	124.349	80.7722	194.879
2.22	124.342	80.8214	194.837
2.2225	124.334	80.8706	194.796
2.225	124.326	80.9198	194.754
2.2275	124.318	80.969	194.713
2.23	124.309	81.0183	194.672
2.2325	124.301	81.0675	194.632
2.235	124.292	81.1168	194.591
2.2375	124.283	81.166	194.551
2.24	124.274	81.2153	194.511
2.2425	124.265	81.2646	194.471
2.245	124.255	81.3139	194.431
2.2475	124.246	81.3632	194.391
2.25	124.236	81.4125	194.352
2.2525	124.226	81.4619	194.312
2.255	124.216	81.5112	194.273
2.2575	124.205	81.5606	194.234
2.26	124.195	81.6099	194.195
2.2625	124.184	81.6593	194.157
2.265	124.173	81.7087	194.118
2.2675	124.162	81.758	194.08
2.27	124.151	81.8074	194.042
2.2725	124.139	81.8568	194.004
2.275	124.128	81.9062	193.966
2.2775	124.116	81.9556	193.929
2.28	124.104	82.0051	193.891
2.2825	124.092	82.0545	193.854
2.285	124.079	82.1039	193.817
2.2875	124.067	82.1533	193.78
2.29	124.054	82.2028	193.743
2.2925	124.041	82.2522	193.706
2.295	124.028	82.3016	193.67
2.2975	124.015	82.3511	193.634
2.3	124.002	82.4005	193.598
2.3025	123.988	82.45	193.562
2.305	123.975	82.4994	193.526
2.3075	123.961	82.5489	193.491
2.31	123.947	82.5983	193.455
2.3125	123.932	82.6477	193.42
2.315	123.918	82.6972	193.385
2.3175	123.903	82.7466	193.35
2.32	123.889	82.7961	193.315
2.3225	123.874	82.8455	193.281
2.325	123.859	82.895	193.246
2.3275	123.844	82.9444	193.212
2.33	123.828	82.9939	193.178
2.3325	123.813	83.0433	193.144
2.335	123.797	83.0927	193.11
2.3375	123.781	83.1422	193.077
2.34	123.765	83.1916	193.043
2.3425	123.749	83.241	193.01
2.345	123.733	83.2904	192.977
2.3475	123.716	83.3399	192.944
2.35	123.699	83.3893	192.911
2.3525	123.683	83.4387	192.879
2.355	123.666	83.4881	192.846
2.3575	123.649	83.5375	192.814
2.36	123.631	83.5869	192.782
2.3625	123.614	83.6362	192.75
2.365	123.596	83.6856	192.718
2.3675	123.578	83.735	192.687
2.37	123.561	83.7843	192.655
2.3725	123.542	83.8337	192.624
2.375	123.524	83.883	192.593
2.3775	123.506	83.9323	192.562
2.38	123.487	83.9816	192.531
2.3825	123.469	84.031	192.5
2.385	123.45	84.0803	192.47
2.3875	123.431	84.1295	192.44
2.39	123.412	84.1788	192.409
2.3925	123.392	84.2281	192.38
2.395	123.373	84.2773	192.35
2.3975	123.353	84.3266	192.32
2.4	123.334	84.3758	192.291
2.4025	123.314	84.425	192.261
2.405	123.294	84.4742	192.232
2.4075	123.274	84.5234	192.203
2.41	123.253	84.5726	192.174
2.4125	123.233	84.6217	192.145
2.415	123.212	84.6709	192.117
2.4175	123.192	84.72	192.088
2.42	123.171	84.7691	192.06
2.4225	123.15	84.8182	192.032
2.425	123.128	84.8673	192.004
2.4275	123.107	84.9163	191.976
2.43	123.086	84.9654	191.949
2.4325	123.064	85.0144	191.921
2.435	123.042	85.0634	191.894
2.4375	123.021	85.1124	191.867
2.44	122.999	85.1614	191.84
2.4425	122.976	85.2104	191.813
2.445	122.954	85.2593	191.787
2.4475	122.932	85.3082	191.76
2.45	122.909	85.3571	191.734
2.4525	122.887	85.406	191.708
2.455	122.864	85.4548	191.681
2.4575	122.841	85.5037	191.656
2.46	122.818	85.5525	191.63
2.4625	122.794	85.6013	191.604
2.465	122.771	85.65	191.579
2.4675	122.748	85.6988	191.554
2.47	122.724	85.7475	191.528
2.4725	122.7	85.7962	191.503
2.475	122.676	85.8449	191.479
2.4775	122.652	85.8935	191.454
2.48	122.628	85.9422	191.429
2.4825	122.604	85.9908	191.405
2.485	122.58	86.0394	191.381
2.4875	122.555	86.0879	191.357
2.49	122.531	86.1365	191.333
2.4925	122.506	86.185	191.309
2.495	122.481	86.2334	191.286
2.4975	122.456	86.2819	191.262
2.5	122.431	86.3303	191.239
2.5025	122.406	86.3787	191.216
2.505	122.38	86.4271	191.193
2.5075	122.355	86.4754	191.17
2.51	122.329	86.5237	191.147
2.5125	122.303	86.572	191.125
2.515	122.277	86.6203	191.102
2.5175	122.251	86.6685	191.08
2.52	122.225	86.7167	191.058
2.5225	122.199	86.7649	191.036
2.525	122.173	86.813	191.014
2.5275	122.146	86.8611	190.992
2.53	122.12	86.9092	190.971
2.5325	122.093	86.9572	190.95
2.535	122.066	87.0053	190.928
2.5375	122.039	87.0532	190.907
2.54	122.012	87.1012	190.886
2.5425	121.985	87.1491	190.866
2.545	121.958	87.197	190.845
2.5475	121.931	87.2448	190.824
2.55	121.903	87.2926	190.804
2.5525	121.876	87.3404	190.784
2.555	121.848	87.3882	190.764
2.5575	121.82	87.4359	190.744
2.56	121.792	87.4836	190.724
2.5625	121.764	87.5312	190.705
2.565	121.736	87.5788	190.685
2.5675	121.708	87.6264	190.666
2.57	121.68	87.6739	190.647
2.5725	121.651	87.7214	190.627
2.575	121.623	87.7689	190.609
2.5775	121.594	87.8163	190.59
2.58	121.565	87.8637	190.571
2.5825	121.536	87.9111	190.553
2.585	121.507	87.9584	190.534
2.5875	121.478	88.0057	190.516
2.59	121.449	88.0529	190.498
2.5925	121.42	88.1001	190.48
2.595	121.39	88.1472	190.462
2.5975	121.361	88.1944	190.445
2.6	121.331	88.2414	190.427
2.6025	121.302	88.2885	190.41
2.605	121.272	88.3355	190.393
2.6075	121.242	88.3824	190.376
2.61	121.212	88.4293	190.359
2.6125	121.182	88.4762	190.342
2.615	121.152	88.523	190.325
2.6175	121.122	88.5698	190.309
2.62	121.091	88.6166	190.292
2.6225	121.061	88.6633	190.276
2.625	121.03	88.7099	190.26
2.6275	121	88.7566	190.244
2.63	120.969	88.8031	190.228
2.6325	120.938	88.8497	190.212
2.635	120.907	88.8962	190.197
2.6375	120.876	88.9426	190.181
2.64	120.845	88.989	190.166
2.6425	120.814	89.0353	190.151
2.645	120.783	89.0817	190.136
2.6475	120.751	89.1279	190.121
2.65	120.72	89.1741	190.106
2.6525	120.688	89.2203	190.092
2.655	120.657	89.2664	190.077
2.6575	120.625	89.3125	190.063
2.66	120.593	89.3585	190.048
2.6625	120.561	89.4045	190.034
2.665	120.529	89.4504	190.02
2.6675	120.497	89.4963	190.007
2.67	120.465	89.5422	189.993
2.6725	120.433	89.5879	189.979
2.675	120.4	89.6337	189.966
2.6775	120.368	89.6794	189.953
2.68	120.336	89.725	189.939
2.6825	120.303	89.7706	189.926
2.685	120.27	89.8161	189.913
2.6875	120.238	89.8616	189.901
2.69	120.205	89.9071	189.888
2.6925	120.172	89.9525	189.875
2.695	120.139	89.9978	189.863
2.6975	120.106	90.0431	189.851
2.7	120.073	90.0883	189.839
2.7025	120.04	90.1335	189.827
2.705	120.007	90.1786	189.815
2.7075	119.973	90.2237	189.803
2.71	119.94	90.2687	189.791
2.7125	119.906	90.3137	189.78
2.715	119.873	90.3586	189.768
2.7175	119.839	90.4035	189.757
2.72	119.806	90.4483	189.746
2.7225	119.772	90.4931	189.735
2.725	119.738	90.5378	189.724
2.7275	119.704	90.5824	189.713
2.73	119.67	90.627	189.703
2.7325	119.636	90.6716	189.692
2.735	119.602	90.716	189.682
2.7375	119.568	90.7605	189.672
2.74	119.534	90.8048	189.662
2.7425	119.499	90.8491	189.652
2.745	119.465	90.8934	189.642
2.7475	119.43	90.9376	189.632
2.75	119.396	90.9818	189.622
2.7525	119.361	91.0258	189.613
2.755	119.327	91.0699	189.603
2.7575	119.292	91.1138	189.594
2.76	119.257	91.1578	189.585
2.7625	119.222	91.2016	189.576
2.765	119.188	91.2454	189.567
2.7675	119.153	91.2892	189.558
2.77	119.118	91.3328	189.55
2.7725	119.082	91.3765	189.541
2.775	119.047	91.42	189.533
2.7775	119.012	91.4635	189.524
2.78	118.977	91.507	189.516
2.7825	118.942	91.5504	189.508
2.785	118.906	91.5937	189.5
2.7875	118.871	91.6369	189.492
2.79	118.835	91.6801	189.485
2.7925	118.8	91.7233	189.477
2.795	118.764	91.7664	189.469
2.7975	118.729	91.8094	189.462
2.8	118.693	91.8523	189.455
2.8025	118.657	91.8952	189.448
2.805	118.621	91.9381	189.441
2.8075	118.585	91.9808	189.434
2.81	118.549	92.0235	189.427
2.8125	118.513	92.0662	189.42
2.815	118.477	92.1088	189.414
2.8175	118.441	92.1513	189.407
2.82	118.405	92.1937	189.401
2.8225	118.369	92.2361	189.395
2.825	118.333	92.2784	189.389
2.8275	118.297	92.3207	189.383
2.83	118.26	92.3629	189.377
2.8325	118.224	92.405	189.371
2.835	118.187	92.4471	189.366
2.8375	118.151	92.4891	189.36
2.84	118.114	92.531	189.355
2.8425	118.078	92.5729	189.349
2.845	118.041	92.6147	189.344
2.8475	118.005	92.6564	189.339
2.85	117.968	92.6981	189.334
2.8525	117.931	92.7397	189.329
2.855	117.894	92.7813	189.324
2.8575	117.858	92.8227	189.32
2.86	117.821	92.8641	189.315
2.8625	117.784	92.9055	189.311
2.865	117.747	92.9468	189.306
2.8675	117.71	92.988	189.302
2.87	117.673	93.0291	189.298
2.8725	117.636	93.0702	189.294
2.875	117.599	93.1112	189.29
2.8775	117.561	93.1521	189.286
2.88	117.524	93.193	189.283
2.8825	117.487	93.2338	189.279
2.885	117.45	93.2745	189.276
2.8875	117.412	93.3151	189.272
2.89	117.375	93.3557	189.269
2.8925	117.338	93.3962	189.266
2.895	117.3	93.4367	189.263
2.8975	117.263	93.4771	189.26
2.9	117.225	93.5174	189.257
2.9025	117.188	93.5576	189.254
2.905	117.15	93.5978	189.252
2.9075	117.113	93.6379	189.249
2.91	117.075	93.6779	189.247
2.9125	117.038	93.7178	189.245
2.915	117	93.7577	189.242
2.9175	116.962	93.7975	189.24
2.92	116.924	93.8373	189.238
2.9225	116.887	93.8769	189.236
2.925	116.849	93.9165	189.235
2.9275	116.811	93.9561	189.233
2.93	116.773	93.9955	189.231
2.9325	116.735	94.0349	189.23
2.935	116.697	94.0742	189.228
2.9375	116.66	94.1134	189.227
2.94	116.622	94.1526	189.226
2.9425	116.584	94.1917	189.225
2.945	116.546	94.2307	189.224
2.9475	116.508	94.2696	189.223
2.95	116.469	94.3085	189.222
2.9525	116.431	94.3473	189.221
2.955	116.393	94.386	189.221
2.9575	116.355	94.4247	189.22
2.96	116.317	94.4632	189.22
2.9625	116.279	94.5017	189.219
2.965	116.241	94.5402	189.219
2.9675	116.202	94.5785	189.219
2.97	116.164	94.6168	189.219
2.9725	116.126	94.655	189.219
2.975	116.088	94.6931	189.219
2.9775	116.049	94.7311	189.22
2.98	116.011	94.7691	189.22
2.9825	115.973	94.807	189.22
2.985	115.934	94.8448	189.221
2.9875	115.896	94.8826	189.222
2.99	115.857	94.9202	189.222
2.9925	115.819	94.9578	189.223
2.995	115.781	94.9953	189.224
2.9975	115.742	95.0328	189.225
3	115.704	95.0701	189.226
3.0025	115.665	95.1074	189.227
3.005	115.627	95.1446	189.229
3.0075	115.588	95.1818	189.23
3.01	115.55	95.2188	189.231
3.0125	115.511	95.2558	189.233
3.015	115.473	95.2927	189.235
3.0175	115.434	95.3295	189.236
3.02	115.396	95.3663	189.238
3.0225	115.357	95.4029	189.24
3.025	115.318	95.4395	189.242
3.0275	115.28	95.476	189.244
3.03	115.241	95.5125	189.246
3.0325	115.203	95.5488	189.249
3.035	115.164	95.5851	189.251
3.0375	115.125	95.6213	189.253
3.04	115.087	95.6574	189.256
3.0425	115.048	95.6935	189.259
3.045	115.009	95.7294	189.261
3.0475	114.971	95.7653	189.264
3.05	114.932	95.8011	189.267
3.0525	114.893	95.8368	189.27
3.055	114.855	95.8725	189.273
3.0575	114.816	95.908	189.276
3.06	114.777	95.9435	189.279
3.0625	114.738	95.9789	189.283
3.065	114.7	96.0142	189.286
3.0675	114.661	96.0495	189.289
3.07	114.622	96.0846	189.293
3.0725	114.584	96.1197	189.297
3.075	114.545	96.1547	189.3
3.0775	114.506	96.1897	189.304
3.08	114.467	96.2245	189.308
3.0825	114.429	96.2593	189.312
3.085	114.39	96.2939	189.316
3.0875	114.351	96.3286	189.32
3.09	114.313	96.3631	189.324
3.0925	114.274	96.3975	189.329
3.095	114.235	96.4319	189.333
3.0975	114.196	96.4661	189.338
3.1	114.158	96.5003	189.342
3.1025	114.119	96.5345	189.347
3.105	114.08	96.5685	189.351
3.1075	114.041	96.6024	189.356
3.11	114.003	96.6363	189.361
3.1125	113.964	96.6701	189.366
3.115	113.925	96.7038	189.371
3.1175	113.887	96.7374	189.376
3.12	113.848	96.771	189.381
3.1225	113.809	96.8044	189.386
3.125	113.77	96.8378	189.392
3.1275	113.732	96.8711	189.397
3.13	113.693	96.9043	189.403
3.1325	113.654	96.9375	189.408
3.135	113.616	96.9705	189.414
3.1375	113.577	97.0035	189.419
3.14	113.538	97.0364	189.425
3.1425	113.5	97.0692	189.431
3.145	113.461	97.1019	189.437
3.1475	113.422	97.1345	189.443
3.15	113.384	97.1671	189.449
3.1525	113.345	97.1995	189.455
3.155	113.307	97.2319	189.461
3.1575	113.268	97.2642	189.468
3.16	113.229	97.2964	189.474
3.1625	113.191	97.3286	189.481
3.165	113.152	97.3606	189.487
3.1675	113.114	97.3926	189.494
3.17	113.075	97.4245	189.5
3.1725	113.037	97.4563	189.507
3.175	112.998	97.488	189.514
3.1775	112.96	97.5197	189.521
3.18	112.921	97.5512	189.528
3.1825	112.883	97.5827	189.535
3.185	112.844	97.6141	189.542
3.1875	112.806	97.6454	189.549
3.19	112.767	97.6766	189.556
3.1925	112.729	97.7077	189.563
3.195	112.691	97.7388	189.571
3.1975	112.652	97.7698	189.578
3.2	112.614	97.8006	189.586
3.2025	112.575	97.8314	189.593
3.205	112.537	97.8621	189.601
3.2075	112.499	97.8928	189.608
3.21	112.461	97.9233	189.616
3.2125	112.422	97.9538	189.624
3.215	112.384	97.9842	189.632
3.2175	112.346	98.0145	189.64
3.22	112.308	98.0447	189.648
3.2225	112.269	98.0748	189.656
3.225	112.231	98.1048	189.664
3.2275	112.193	98.1348	189.672
3.23	112.155	98.1647	189.681
3.2325	112.117	98.1944	189.689
3.235	112.079	98.2242	189.697
3.2375	112.04	98.2538	189.706
3.24	112.002	98.2833	189.714
3.2425	111.964	98.3127	189.723
3.245	111.926	98.3421	189.732
3.2475	111.888	98.3714	189.74
3.25	111.85	98.4006	189.749
3.2525	111.812	98.4297	189.758
3.255	111.774	98.4587	189.767
3.2575	111.737	98.4877	189.776
3.26	111.699	98.5165	189.785
3.2625	111.661	98.5453	189.794
3.265	111.623	98.574	189.803
3.2675	111.585	98.6026	189.812
3.27	111.547	98.6311	189.822
3.2725	111.51	98.6595	189.831
3.275	111.472	98.6879	189.84
3.2775	111.434	98.7161	189.85
3.28	111.396	98.7443	189.859
3.2825	111.359	98.7724	189.869
3.285	111.321	98.8004	189.878
3.2875	111.284	98.8283	189.888
3.29	111.246	98.8562	189.898
3.2925	111.208	98.8839	189.908
3.295	111.171	98.9116	189.917
3.2975	111.133	98.9392	189.927
3.3	111.096	98.9667	189.937
3.3025	111.059	98.9941	189.947
3.305	111.021	99.0214	189.957
3.3075	110.984	99.0486	189.968
3.31	110.946	99.0758	189.978
3.3125	110.909	99.1029	189.988
3.315	110.872	99.1298	189.998
3.3175	110.835	99.1567	190.009
3.32	110.797	99.1836	190.019
3.3225	110.76	99.2103	190.03
3.325	110.723	99.2369	190.04
3.3275	110.686	99.2635	190.051
3.33	110.649	99.29	190.061
3.3325	110.612	99.3164	190.072
3.335	110.575	99.3427	190.083
3.3375	110.538	99.3689	190.093
3.34	110.501	99.395	190.104
3.3425	110.464	99.4211	190.115
3.345	110.427	99.447	190.126
3.3475	110.39	99.4729	190.137
3.35	110.353	99.4987	190.148
3.3525	110.316	99.5244	190.159
3.355	110.28	99.55	190.17
3.3575	110.243	99.5756	190.182
3.36	110.206	99.601	190.193
3.3625	110.17	99.6264	190.204
3.365	110.133	99.6517	190.215
3.3675	110.096	99.6769	190.227
3.37	110.06	99.702	190.238
3.3725	110.023	99.7271	190.25
3.375	109.987	99.752	190.261
3.3775	109.95	99.7769	190.273
3.38	109.914	99.8016	190.284
3.3825	109.878	99.8263	190.296
3.385	109.841	99.8509	190.308
3.3875	109.805	99.8755	190.32
3.39	109.769	99.8999	190.331
3.3925	109.732	99.9243	190.343
3.395	109.696	99.9485	190.355
3.3975	109.66	99.9727	190.367
3.4	109.624	99.9968	190.379
3.4025	109.588	100.021	190.391
3.405	109.552	100.045	190.403
3.4075	109.516	100.069	190.415
3.41	109.48	100.092	190.428
3.4125	109.444	100.116	190.44
3.415	109.408	100.14	190.452
3.4175	109.373	100.163	190.464
3.42	109.337	100.187	190.477
3.4225	109.301	100.21	190.489
3.425	109.265	100.233	190.501
3.4275	109.23	100.256	190.514
3.43	109.194	100.279	190.526
3.4325	109.158	100.302	190.539
3.435	109.123	100.325	190.552
3.4375	109.087	100.348	190.564
3.44	109.052	100.371	190.577
3.4425	109.017	100.394	190.59
3.445	108.981	100.416	190.602
3.4475	108.946	100.439	190.615
3.45	108.911	100.461	190.628
3.4525	108.875	100.484	190.641
3.455	108.84	100.506	190.654
3.4575	108.805	100.528	190.667
3.46	108.77	100.55	190.68
3.4625	108.735	100.572	190.693
3.465	108.7	100.594	190.706
3.4675	108.665	100.616	190.719
3.47	108.63	100.638	190.732
3.4725	108.595	100.659	190.746
3.475	108.56	100.681	190.759
3.4775	108.526	100.702	190.772
3.48	108.491	100.724	190.785
3.4825	108.456	100.745	190.799
3.485	108.422	100.766	190.812
3.4875	108.387	100.788	190.825
3.49	108.352	100.809	190.839
3.4925	108.318	100.83	190.852
3.495	108.284	100.851	190.866
3.4975	108.249	100.871	190.88
3.5	108.215	100.892	190.893
3.5025	108.18	100.913	190.907
3.505	108.146	100.933	190.92
3.5075	108.112	100.954	190.934
3.51	108.078	100.974	190.948
3.5125	108.044	100.995	190.962
3.515	108.01	101.015	190.975
3.5175	107.976	101.035	190.989
3.52	107.942	101.055	191.003
3.5225	107.908	101.075	191.017
3.525	107.874	101.095	191.031
3.5275	107.84	101.115	191.045
3.53	107.806	101.135	191.059
3.5325	107.772	101.155	191.073
3.535	107.739	101.174	191.087
3.5375	107.705	101.194	191.101
3.54	107.672	101.213	191.115
3.5425	107.638	101.233	191.129
3.545	107.605	101.252	191.144
3.5475	107.571	101.271	191.158
3.55	107.538	101.29	191.172
3.5525	107.504	101.309	191.186
3.555	107.471	101.328	191.201
3.5575	107.438	101.347	191.215
3.56	107.405	101.366	191.229
3.5625	107.372	101.385	191.244
3.565	107.339	101.403	191.258
3.5675	107.306	101.422	191.273
3.57	107.273	101.44	191.287
3.5725	107.24	101.459	191.302
3.575	107.207	101.477	191.316
3.5775	107.174	101.495	191.331
3.58	107.141	101.513	191.345
3.5825	107.109	101.532	191.36
3.585	107.076	101.55	191.374
3.5875	107.043	101.567	191.389
3.59	107.011	101.585	191.404
3.5925	106.978	101.603	191.419
3.595	106.946	101.621	191.433
3.5975	106.914	101.638	191.448
3.6	106.881	101.656	191.463
3.6025	106.849	101.673	191.478
3.605	106.817	101.691	191.493
3.6075	106.785	101.708	191.507
3.61	106.752	101.725	191.522
3.6125	106.72	101.742	191.537
3.615	106.688	101.759	191.552
3.6175	106.656	101.776	191.567
3.62	106.625	101.793	191.582
3.6225	106.593	101.81	191.597
3.625	106.561	101.827	191.612
3.6275	106.529	101.843	191.627
3.63	106.498	101.86	191.642
3.6325	106.466	101.877	191.657
3.635	106.434	101.893	191.673
3.6375	106.403	101.909	191.688
3.64	106.371	101.926	191.703
3.6425	106.34	101.942	191.718
3.645	106.309	101.958	191.733
3.6475	106.277	101.974	191.749
3.65	106.246	101.99	191.764
3.6525	106.215	102.006	191.779
3.655	106.184	102.022	191.794
3.6575	106.153	102.037	191.81
3.66	106.122	102.053	191.825
3.6625	106.091	102.069	191.84
3.665	106.06	102.084	191.856
3.6675	106.029	102.1	191.871
3.67	105.998	102.115	191.887
3.6725	105.968	102.13	191.902
3.675	105.937	102.145	191.918
3.6775	105.906	102.16	191.933
3.68	105.876	102.176	191.949
3.6825	105.845	102.191	191.964
3.685	105.815	102.205	191.98
3.6875	105.785	102.22	191.995
3.69	105.754	102.235	192.011
3.6925	105.724	102.25	192.026
3.695	105.694	102.264	192.042
3.6975	105.664	102.279	192.057
3.7	105.634	102.293	192.073
3.7025	105.604	102.308	192.089
3.705	105.574	102.322	192.104
3.7075	105.544	102.336	192.12
3.71	105.514	102.35	192.136
3.7125	105.484	102.364	192.152
3.715	105.454	102.378	192.167
3.7175	105.425	102.392	192.183
3.72	105.395	102.406	192.199
3.7225	105.366	102.42	192.215
3.725	105.336	102.434	192.23
3.7275	105.307	102.447	192.246
3.73	105.277	102.461	192.262
3.7325	105.248	102.474	192.278
3.735	105.219	102.488	192.294
3.7375	105.19	102.501	192.309
3.74	105.16	102.514	192.325
3.7425	105.131	102.527	192.341
3.745	105.102	102.541	192.357
3.7475	105.073	102.554	192.373
3.75	105.045	102.567	192.389
3.7525	105.016	102.579	192.405
3.755	104.987	102.592	192.421
3.7575	104.958	102.605	192.437
3.76	104.93	102.618	192.453
3.7625	104.901	102.63	192.469
3.765	104.872	102.643	192.485
3.7675	104.844	102.655	192.501
3.77	104.816	102.668	192.517
3.7725	104.787	102.68	192.533
3.775	104.759	102.692	192.549
3.7775	104.731	102.704	192.565
3.78	104.702	102.717	192.581
3.7825	104.674	102.729	192.597
3.785	104.646	102.741	192.613
3.7875	104.618	102.752	192.629
3.79	104.59	102.764	192.645
3.7925	104.563	102.776	192.661
3.795	104.535	102.788	192.678
3.7975	104.507	102.799	192.694
3.8	104.479	102.811	192.71
3.8025	104.452	102.822	192.726
3.805	104.424	102.834	192.742
3.8075	104.397	102.845	192.758
3.81	104.369	102.856	192.774
3.8125	104.342	102.868	192.791
3.815	104.314	102.879	192.807
3.8175	104.287	102.89	192.823
3.82	104.26	102.901	192.839
3.8225	104.233	102.912	192.855
3.825	104.206	102.923	192.872
3.8275	104.179	102.933	192.888
3.83	104.152	102.944	192.904
3.8325	104.125	102.955	192.92
3.835	104.098	102.965	192.937
3.8375	104.071	102.976	192.953
3.84	104.045	102.986	192.969
3.8425	104.018	102.997	192.985
3.845	103.991	103.007	193.002
3.8475	103.965	103.017	193.018
3.85	103.939	103.027	193.034
3.8525	103.912	103.038	193.05
3.855	103.886	103.048	193.067
3.8575	103.86	103.058	193.083
3.86	103.833	103.067	193.099
3.8625	103.807	103.077	193.116
3.865	103.781	103.087	193.132
3.8675	103.755	103.097	193.148
3.87	103.729	103.106	193.164
3.8725	103.703	103.116	193.181
3.875	103.677	103.126	193.197
3.8775	103.652	103.135	193.213
3.88	103.626	103.144	193.23
3.8825	103.6	103.154	193.246
3.885	103.575	103.163	193.262
3.8875	103.549	103.172	193.279
3.89	103.524	103.181	193.295
3.8925	103.498	103.19	193.311
3.895	103.473	103.199	193.328
3.8975	103.448	103.208	193.344
3.9	103.423	103.217	193.36
3.9025	103.397	103.226	193.377
3.905	103.372	103.235	193.393
3.9075	103.347	103.243	193.409
3.91	103.322	103.252	193.426
3.9125	103.297	103.26	193.442
3.915	103.273	103.269	193.458
3.9175	103.248	103.277	193.475
3.92	103.223	103.286	193.491
3.9225	103.199	103.294	193.507
3.925	103.174	103.302	193.524
3.9275	103.149	103.31	193.54
3.93	103.125	103.318	193.557
3.9325	103.101	103.327	193.573
3.935	103.076	103.334	193.589
3.9375	103.052	103.342	193.606
3.94	103.028	103.35	193.622
3.9425	103.004	103.358	193.638
3.945	102.98	103.366	193.655
3.9475	102.956	103.373	193.671
3.95	102.932	103.381	193.687
3.9525	102.908	103.389	193.704
3.955	102.884	103.396	193.72
3.9575	102.86	103.404	193.736
3.96	102.836	103.411	193.753
3.9625	102.813	103.418	193.769
3.965	102.789	103.425	193.785
3.9675	102.766	103.433	193.802
3.97	102.742	103.44	193.818
3.9725	102.719	103.447	193.834
3.975	102.696	103.454	193.851
3.9775	102.672	103.461	193.867
3.98	102.649	103.468	193.883
3.9825	102.626	103.474	193.9
3.985	102.603	103.481	193.916
3.9875	102.58	103.488	193.932
3.99	102.557	103.495	193.949
3.9925	102.534	103.501	193.965
3.995	102.511	103.508	193.981
3.9975	102.488	103.514	193.997
4	102.466	103.521	194.014
4.0025	102.443	103.527	194.03
4.005	102.421	103.533	194.046
4.0075	102.398	103.539	194.063
4.01	102.376	103.546	194.079
4.0125	102.353	103.552	194.095
4.015	102.331	103.558	194.111
4.0175	102.309	103.564	194.128
4.02	102.286	103.57	194.144
4.0225	102.264	103.576	194.16
4.025	102.242	103.581	194.176
4.0275	102.22	103.587	194.193
4.03	102.198	103.593	194.209
4.0325	102.176	103.599	194.225
4.035	102.155	103.604	194.241
4.0375	102.133	103.61	194.257
4.04	102.111	103.615	194.274
4.0425	102.089	103.621	194.29
4.045	102.068	103.626	194.306
4.0475	102.046	103.631	194.322
4.05	102.025	103.637	194.338
4.0525	102.004	103.642	194.354
4.055	101.982	103.647	194.371
4.0575	101.961	103.652	194.387
4.06	101.94	103.657	194.403
4.0625	101.919	103.662	194.419
4.065	101.898	103.667	194.435
4.0675	101.877	103.672	194.451
4.07	101.856	103.677	194.467
4.0725	101.835	103.682	194.484
4.075	101.814	103.686	194.5
4.0775	101.793	103.691	194.516
4.08	101.772	103.696	194.532
4.0825	101.752	103.7	194.548
4.085	101.731	103.705	194.564
4.0875	101.711	103.709	194.58
4.09	101.69	103.714	194.596
4.0925	101.67	103.718	194.612
4.095	101.65	103.722	194.628
4.0975	101.629	103.727	194.644
4.1	101.609	103.731	194.66
4.1025	101.589	103.735	194.676
4.105	101.569	103.739	194.692
4.1075	101.549	103.743	194.708
4.11	101.529	103.747	194.724
4.1125	101.509	103.751	194.74
4.115	101.489	103.755	194.756
4.1175	101.469	103.759	194.772
4.12	101.45	103.763	194.788
4.1225	101.43	103.766	194.804
4.125	101.41	103.77	194.82
4.1275	101.391	103.774	194.836
4.13	101.371	103.777	194.851
4.1325	101.352	103.781	194.867
4.135	101.333	103.784	194.883
4.1375	101.313	103.788	194.899
4.14	101.294	103.791	194.915
4.1425	101.275	103.794	194.931
4.145	101.256	103.798	194.946
4.1475	101.237	103.801	194.962
4.15	101.218	103.804	194.978
4.1525	101.199	103.807	194.994
4.155	101.18	103.81	195.01
4.1575	101.161	103.813	195.025
4.16	101.143	103.816	195.041
4.1625	101.124	103.819	195.057
4.165	101.105	103.822	195.073
4.1675	101.087	103.825	195.088
4.17	101.068	103.828	195.104
4.1725	101.05	103.831	195.12
4.175	101.031	103.833	195.135
4.1775	101.013	103.836	195.151
4.18	100.995	103.838	195.167
4.1825	100.977	103.841	195.182
4.185	100.959	103.844	195.198
4.1875	100.94	103.846	195.214
4.19	100.922	103.848	195.229
4.1925	100.905	103.851	195.245
4.195	100.887	103.853	195.26
4.1975	100.869	103.855	195.276
4.2	100.851	103.858	195.291
4.2025	100.833	103.86	195.307
4.205	100.816	103.862	195.322
4.2075	100.798	103.864	195.338
4.21	100.781	103.866	195.353
4.2125	100.763	103.868	195.369
4.215	100.746	103.87	195.384
4.2175	100.728	103.872	195.4
4.22	100.711	103.874	195.415
4.2225	100.694	103.876	195.431
4.225	100.677	103.877	195.446
4.2275	100.66	103.879	195.461
4.23	100.642	103.881	195.477
4.2325	100.625	103.883	195.492
4.235	100.609	103.884	195.507
4.2375	100.592	103.886	195.523
4.24	100.575	103.887	195.538
4.2425	100.558	103.889	195.553
4.245	100.541	103.89	195.569
4.2475	100.525	103.891	195.584
4.25	100.508	103.893	195.599
4.2525	100.492	103.894	195.614
4.255	100.475	103.895	195.629
4.2575	100.459	103.897	195.645
4.26	100.442	103.898	195.66
4.2625	100.426	103.899	195.675
4.265	100.41	103.9	195.69
4.2675	100.394	103.901	195.705
4.27	100.378	103.902	195.72
4.2725	100.362	103.903	195.735
4.275	100.346	103.904	195.751
4.2775	100.33	103.905	195.766
4.28	100.314	103.906	195.781
4.2825	100.298	103.906	195.796
4.285	100.282	103.907	195.811
4.2875	100.266	103.908	195.826
4.29	100.251	103.909	195.841
4.2925	100.235	103.909	195.856
4.295	100.22	103.91	195.871
4.2975	100.204	103.91	195.886
4.3	100.189	103.911	195.9
4.3025	100.173	103.911	195.915
4.305	100.158	103.912	195.93
4.3075	100.143	103.912	195.945
4.31	100.128	103.912	195.96
4.3125	100.112	103.913	195.975
4.315	100.097	103.913	195.99
4.3175	100.082	103.913	196.004
4.32	100.067	103.913	196.019
4.3225	100.053	103.914	196.034
4.325	100.038	103.914	196.049
4.3275	100.023	103.914	196.063
4.33	100.008	103.914	196.078
4.3325	99.9935	103.914	196.093
4.335	99.9788	103.914	196.107
4.3375	99.9643	103.914	196.122
4.34	99.9498	103.914	196.137
4.3425	99.9353	103.914	196.151
4.345	99.9209	103.913	196.166
4.3475	99.9066	103.913	196.18
4.35	99.8923	103.913	196.195
4.3525	99.8781	103.913	196.209
4.355	99.8639	103.912	196.224
4.3575	99.8498	103.912	196.238
4.36	99.8357	103.911	196.253
4.3625	99.8217	103.911	196.267
4.365	99.8077	103.91	196.282
4.3675	99.7938	103.91	196.296
4.37	99.78	103.909	196.311
4.3725	99.7662	103.909	196.325
4.375	99.7525	103.908	196.339
4.3775	99.7388	103.908	196.354
4.38	99.7252	103.907	196.368
4.3825	99.7116	103.906	196.382
4.385	99.6981	103.905	196.397
4.3875	99.6847	103.905	196.411
4.39	99.6713	103.904	196.425
4.3925	99.6579	103.903	196.439
4.395	99.6446	103.902	196.453
4.3975	99.6314	103.901	196.468
4.4	99.6182	103.9	196.482
4.4025	99.6051	103.899	196.496
4.405	99.592	103.898	196.51
4.4075	99.579	103.897	196.524
4.41	99.566	103.896	196.538
4.4125	99.5531	103.895	196.552
4.415	99.5402	103.893	196.566
4.4175	99.5274	103.892	196.58
4.42	99.5147	103.891	196.594
4.4225	99.502	103.89	196.608
4.425	99.4893	103.888	196.622
4.4275	99.4767	103.887	196.636
4.43	99.4642	103.886	196.65
4.4325	99.4517	103.884	196.664
4.435	99.4393	103.883	196.678
4.4375	99.4269	103.881	196.692
4.44	99.4146	103.88	196.706
4.4425	99.4023	103.878	196.719
4.445	99.3901	103.877	196.733
4.4475	99.3779	103.875	196.747
4.45	99.3658	103.874	196.761
4.4525	99.3538	103.872	196.774
4.455	99.3418	103.87	196.788
4.4575	99.3298	103.868	196.802
4.46	99.3179	103.867	196.815
4.4625	99.306	103.865	196.829
4.465	99.2943	103.863	196.843
4.4675	99.2825	103.861	196.856
4.47	99.2708	103.859	196.87
4.4725	99.2592	103.857	196.883
4.475	99.2476	103.856	196.897
4.4775	99.236	103.854	196.91
4.48	99.2246	103.852	196.924
4.4825	99.2131	103.85	196.937
4.485	99.2017	103.847	196.951
4.4875	99.1904	103.845	196.964
4.49	99.1791	103.843	196.978
4.4925	99.1679	103.841	196.991
4.495	99.1567	103.839	197.004
4.4975	99.1456	103.837	197.018
4.5	99.1345	103.835	197.031
4.5025	99.1235	103.832	197.044
4.505	99.1125	103.83	197.058
4.5075	99.1016	103.828	197.071
4.51	99.0907	103.825	197.084
4.5125	99.0799	103.823	197.097
4.515	99.0691	103.821	197.11
4.5175	99.0584	103.818	197.124
4.52	99.0477	103.816	197.137
4.5225	99.0371	103.813	197.15
4.525	99.0265	103.811	197.163
4.5275	99.016	103.808	197.176
4.53	99.0055	103.806	197.189
4.5325	98.9951	103.803	197.202
4.535	98.9847	103.8	197.215
4.5375	98.9744	103.798	197.228
4.54	98.9641	103.795	197.241
4.5425	98.9539	103.792	197.254
4.545	98.9437	103.79	197.267
4.5475	98.9336	103.787	197.28
4.55	98.9235	103.784	197.292
4.5525	98.9135	103.781	197.305
4.555	98.9035	103.778	197.318
4.5575	98.8936	103.776	197.331
4.56	98.8837	103.773	197.344
4.5625	98.8739	103.77	197.356
4.565	98.8641	103.767	197.369
4.5675	98.8544	103.764	197.382
4.57	98.8447	103.761	197.394
4.5725	98.8351	103.758	197.407
4.575	98.8255	103.755	197.42
4.5775	98.8159	103.752	197.432
4.58	98.8064	103.749	197.445
4.5825	98.797	103.746	197.457
4.585	98.7876	103.742	197.47
4.5875	98.7782	103.739	197.482
4.59	98.7689	103.736	197.495
4.5925	98.7597	103.733	197.507
4.595	98.7505	103.73	197.52
4.5975	98.7413	103.726	197.532
4.6	98.7322	103.723	197.545
4.6025	98.7231	103.72	197.557
4.605	98.7141	103.717	197.569
4.6075	98.7051	103.713	197.582
4.61	98.6962	103.71	197.594
4.6125	98.6873	103.706	197.606
4.615	98.6785	103.703	197.618
4.6175	98.6697	103.7	197.631
4.62	98.661	103.696	197.643
4.6225	98.6523	103.693	197.655
4.625	98.6436	103.689	197.667
4.6275	98.635	103.686	197.679
4.63	98.6265	103.682	197.691
4.6325	98.618	103.678	197.704
4.635	98.6095	103.675	197.716
4.6375	98.6011	103.671	197.728
4.64	98.5927	103.668	197.74
4.6425	98.5844	103.664	197.752
4.645	98.5761	103.66	197.764
4.6475	98.5679	103.657	197.776
4.65	98.5597	103.653	197.787
4.6525	98.5516	103.649	197.799
4.655	98.5435	103.645	197.811
4.6575	98.5354	103.642	197.823
4.66	98.5274	103.638	197.835
4.6625	98.5194	103.634	197.847
4.665	98.5115	103.63	197.858
4.6675	98.5037	103.626	197.87
4.67	98.4958	103.622	197.882
4.6725	98.488	103.618	197.894
4.675	98.4803	103.615	197.905
4.6775	98.4726	103.611	197.917
4.68	98.465	103.607	197.928
4.6825	98.4573	103.603	197.94
4.685	98.4498	103.599	197.952
4.6875	98.4423	103.595	197.963
4.69	98.4348	103.591	197.975
4.6925	98.4274	103.586	197.986
4.695	98.42	103.582	197.998
4.6975	98.4126	103.578	198.009
4.7	98.4053	103.574	198.021
4.7025	98.3981	103.57	198.032
4.705	98.3908	103.566	198.043
4.7075	98.3837	103.562	198.055
4.71	98.3765	103.558	198.066
4.7125	98.3695	103.553	198.077
4.715	98.3624	103.549	198.089
4.7175	98.3554	103.545	198.1
4.72	98.3484	103.541	198.111
4.7225	98.3415	103.536	198.122
4.725	98.3347	103.532	198.133
4.7275	98.3278	103.528	198.145
4.73	98.321	103.523	198.156
4.7325	98.3143	103.519	198.167
4.735	98.3076	103.515	198.178
4.7375	98.3009	103.51	198.189
4.74	98.2943	103.506	198.2
4.7425	98.2877	103.501	198.211
4.745	98.2812	103.497	198.222
4.7475	98.2747	103.492	198.233
4.75	98.2682	103.488	198.244
4.7525	98.2618	103.484	198.255
4.755	98.2554	103.479	198.266
4.7575	98.2491	103.474	198.276
4.76	98.2428	103.47	198.287
4.7625	98.2366	103.465	198.298
4.765	98.2304	103.461	198.309
4.7675	98.2242	103.456	198.32
4.77	98.2181	103.452	198.33
4.7725	98.212	103.447	198.341
4.775	98.2059	103.442	198.352
4.7775	98.1999	103.438	198.362
4.78	98.194	103.433	198.373
4.7825	98.188	103.428	198.384
4.785	98.1821	103.424	198.394
4.7875	98.1763	103.419	198.405
4.79	98.1705	103.414	198.415
4.7925	98.1647	103.41	198.426
4.795	98.159	103.405	198.436
4.7975	98.1533	103.4	198.447
4.8	98.1477	103.395	198.457
4.8025	98.1421	103.39	198.468
4.805	98.1365	103.386	198.478
4.8075	98.1309	103.381	198.488
4.81	98.1255	103.376	198.499
4.8125	98.12	103.371	198.509
4.815	98.1146	103.366	198.519
4.8175	98.1092	103.361	198.529
4.82	98.1039	103.356	198.54
4.8225	98.0986	103.352	198.55
4.825	98.0933	103.347	198.56
4.8275	98.0881	103.342	198.57
4.83	98.0829	103.337	198.58
4.8325	98.0778	103.332	198.59
4.835	98.0727	103.327	198.6
4.8375	98.0676	103.322	198.611
4.84	98.0626	103.317	198.621
4.8425	98.0576	103.312	198.631
4.845	98.0526	103.307	198.641
4.8475	98.0477	103.302	198.65
4.85	98.0428	103.297	198.66
4.8525	98.038	103.292	198.67
4.855	98.0332	103.287	198.68
4.8575	98.0284	103.282	198.69
4.86	98.0237	103.276	198.7
4.8625	98.019	103.271	198.71
4.865	98.0143	103.266	198.719
4.8675	98.0097	103.261	198.729
4.87	98.0051	103.256	198.739
4.8725	98.0006	103.251	198.749
4.875	97.996	103.246	198.758
4.8775	97.9916	103.24	198.768
4.88	97.9871	103.235	198.778
4.8825	97.9827	103.23	198.787
4.885	97.9784	103.225	198.797
4.8875	97.974	103.22	198.806
4.89	97.9697	103.214	198.816
4.8925	97.9655	103.209	198.825
4.895	97.9613	103.204	198.835
4.8975	97.9571	103.199	198.844
4.9	97.9529	103.193	198.854
4.9025	97.9488	103.188	198.863
4.905	97.9447	103.183	198.873
4.9075	97.9407	103.177	198.882
4.91	97.9367	103.172	198.891
4.9125	97.9327	103.167	198.901
4.915	97.9287	103.161	198.91
4.9175	97.9248	103.156	198.919
4.92	97.921	103.151	198.928
4.9225	97.9171	103.145	198.937
4.925	97.9133	103.14	198.947
4.9275	97.9095	103.135	198.956
4.93	97.9058	103.129	198.965
4.9325	97.9021	103.124	198.974
4.935	97.8984	103.118	198.983
4.9375	97.8948	103.113	198.992
4.94	97.8912	103.108	199.001
4.9425	97.8876	103.102	199.01
4.945	97.8841	103.097	199.019
4.9475	97.8806	103.091	199.028
4.95	97.8772	103.086	199.037
4.9525	97.8737	103.08	199.046
4.955	97.8703	103.075	199.055
4.9575	97.867	103.069	199.064
4.96	97.8636	103.064	199.073
4.9625	97.8603	103.058	199.081
4.965	97.8571	103.053	199.09
4.9675	97.8538	103.047	199.099
4.97	97.8506	103.042	199.108
4.9725	97.8475	103.036	199.116
4.975	97.8443	103.031	199.125
4.9775	97.8412	103.025	199.134
4.98	97.8382	103.02	199.142
4.9825	97.8351	103.014	199.151
4.985	97.8321	103.008	199.16
4.9875	97.8292	103.003	199.168
4.99	97.8262	102.997	199.177
4.9925	97.8233	102.992	199.185
4.995	97.8204	102.986	199.194
4.9975	97.8176	102.98	199.202
5	97.8148	102.975	199.21
5.0025	97.812	102.969	199.219
5.005	97.8092	102.963	199.227
5.0075	97.8065	102.958	199.236
5.01	97.8038	102.952	199.244
5.0125	97.8012	102.947	199.252
5.015	97.7985	102.941	199.261
5.0175	97.7959	102.935	199.269
5.02	97.7934	102.93	199.277
5.0225	97.7908	102.924	199.285
5.025	97.7883	102.918	199.294
5.0275	97.7859	102.912	199.302
5.03	97.7834	102.907	199.31
5.0325	97.781	102.901	199.318
5.035	97.7786	102.895	199.326
5.0375	97.7763	102.89	199.334
5.04	97.774	102.884	199.342
5.0425	97.7717	102.878	199.35
5.045	97.7694	102.872	199.358
5.0475	97.7672	102.867	199.366
5.05	97.765	102.861	199.374
5.0525	97.7628	102.855	199.382
5.055	97.7607	102.849	199.39
5.0575	97.7585	102.844	199.398
5.06	97.7565	102.838	199.406
5.0625	97.7544	102.832	199.413
5.065	97.7524	102.826	199.421
5.0675	97.7504	102.821	199.429
5.07	97.7484	102.815	199.437
5.0725	97.7465	102.809	199.445
5.075	97.7446	102.803	199.452
5.0775	97.7427	102.797	199.46
5.08	97.7408	102.792	199.468
5.0825	97.739	102.786	199.475
5.085	97.7372	102.78	199.483
5.0875	97.7354	102.774	199.49
5.09	97.7337	102.768	199.498
5.0925	97.732	102.763	199.505
5.095	97.7303	102.757	199.513
5.0975	97.7287	102.751	199.52
5.1	97.727	102.745	199.528
5.1025	97.7254	102.739	199.535
5.105	97.7239	102.733	199.543
5.1075	97.7223	102.728	199.55
5.11	97.7208	102.722	199.558
5.1125	97.7193	102.716	199.565
5.115	97.7178	102.71	199.572
5.1175	97.7164	102.704	199.58
5.12	97.715	102.698	199.587
5.1225	97.7136	102.692	199.594
5.125	97.7123	102.686	199.601
5.1275	97.7109	102.681	199.608
5.13	97.7096	102.675	199.616
5.1325	97.7083	102.669	199.623
5.135	97.7071	102.663	199.63
5.1375	97.7059	102.657	199.637
5.14	97.7047	102.651	199.644
5.1425	97.7035	102.645	199.651
5.145	97.7024	102.639	199.658
5.1475	97.7013	102.634	199.665
5.15	97.7002	102.628	199.672
5.1525	97.6991	102.622	199.679
5.155	97.6981	102.616	199.686
5.1575	97.697	102.61	199.693
5.16	97.6961	102.604	199.7
5.1625	97.6951	102.598	199.707
5.165	97.6942	102.592	199.714
5.1675	97.6932	102.586	199.721
5.17	97.6924	102.58	199.727
5.1725	97.6915	102.574	199.734
5.175	97.6907	102.568	199.741
5.1775	97.6899	102.563	199.748
5.18	97.6891	102.557	199.754
5.1825	97.6883	102.551	199.761
5.185	97.6876	102.545	199.768
5.1875	97.6869	102.539	199.774
5.19	97.6862	102.533	199.781
5.1925	97.6855	102.527	199.787
5.195	97.6849	102.521	199.794
5.1975	97.6843	102.515	199.801
5.2	97.6837	102.509	199.807
5.2025	97.6831	102.503	199.814
5.205	97.6826	102.497	199.82
5.2075	97.682	102.491	199.827
5.21	97.6815	102.485	199.833
5.2125	97.6811	102.479	199.839
5.215	97.6806	102.474	199.846
5.2175	97.6802	102.468	199.852
5.22	97.6798	102.462	199.859
5.2225	97.6794	102.456	199.865
5.225	97.6791	102.45	199.871
5.2275	97.6787	102.444	199.877
5.23	97.6784	102.438	199.884
5.2325	97.6782	102.432	199.89
5.235	97.6779	102.426	199.896
5.2375	97.6777	102.42	199.902
5.24	97.6774	102.414	199.908
5.2425	97.6773	102.408	199.915
5.245	97.6771	102.402	199.921
5.2475	97.6769	102.396	199.927
5.25	97.6768	102.39	199.933
5.2525	97.6767	102.384	199.939
5.255	97.6766	102.378	199.945
5.2575	97.6766	102.372	199.951
5.26	97.6765	102.367	199.957
5.2625	97.6765	102.361	199.963
5.265	97.6765	102.355	199.969
5.2675	97.6766	102.349	199.975
5.27	97.6766	102.343	199.981
5.2725	97.6767	102.337	199.986
5.275	97.6768	102.331	199.992
5.2775	97.6769	102.325	199.998
5.28	97.677	102.319	200.004
5.2825	97.6772	102.313	200.01
5.285	97.6774	102.307	200.016
5.2875	97.6776	102.301	200.021
5.29	97.6778	102.295	200.027
5.2925	97.6781	102.289	200.033
5.295	97.6783	102.283	200.038
5.2975	97.6786	102.277	200.044
5.3	97.6789	102.271	200.05
5.3025	97.6792	102.266	200.055
5.305	97.6796	102.26	200.061
5.3075	97.68	102.254	200.066
5.31	97.6804	102.248	200.072
5.3125	97.6808	102.242	200.077
5.315	97.6812	102.236	200.083
5.3175	97.6816	102.23	200.088
5.32	97.6821	102.224	200.094
5.3225	97.6826	102.218	200.099
5.325	97.6831	102.212	200.105
5.3275	97.6836	102.206	200.11
5.33	97.6842	102.2	200.115
5.3325	97.6848	102.194	200.121
5.335	97.6854	102.189	200.126
5.3375	97.686	102.183	200.131
5.34	97.6866	102.177	200.137
5.3425	97.6872	102.171	200.142
5.345	97.6879	102.165	200.147
5.3475	97.6886	102.159	200.152
5.35	97.6893	102.153	200.158
5.3525	97.69	102.147	200.163
5.355	97.6908	102.141	200.168
5.3575	97.6915	102.135	200.173
5.36	97.6923	102.129	200.178
5.3625	97.6931	102.124	200.183
5.365	97.6939	102.118	200.188
5.3675	97.6948	102.112	200.193
5.37	97.6956	102.106	200.198
5.3725	97.6965	102.1	200.203
5.375	97.6974	102.094	200.208
5.3775	97.6983	102.088	200.213
5.38	97.6992	102.082	200.218
5.3825	97.7002	102.077	200.223
5.385	97.7012	102.071	200.228
5.3875	97.7021	102.065	200.233
5.39	97.7031	102.059	200.238
5.3925	97.7042	102.053	200.243
5.395	97.7052	102.047	200.248
5.3975	97.7062	102.041	200.252
5.4	97.7073	102.036	200.257
5.4025	97.7084	102.03	200.262
5.405	97.7095	102.024	200.267
5.4075	97.7106	102.018	200.271
5.41	97.7118	102.012	200.276
5.4125	97.7129	102.006	200.281
5.415	97.7141	102.001	200.285
5.4175	97.7153	101.995	200.29
5.42	97.7165	101.989	200.295
5.4225	97.7177	101.983	200.299
5.425	97.719	101.977	200.304
5.4275	97.7203	101.971	200.308
5.43	97.7215	101.966	200.313
5.4325	97.7228	101.96	200.317
5.435	97.7241	101.954	200.322
5.4375	97.7255	101.948	200.326
5.44	97.7268	101.942	200.331
5.4425	97.7282	101.937	200.335
5.445	97.7295	101.931	200.34
5.4475	97.7309	101.925	200.344
5.45	97.7323	101.919	200.348
5.4525	97.7338	101.913	200.353
5.455	97.7352	101.908	200.357
5.4575	97.7367	101.902	200.361
5.46	97.7381	101.896	200.366
5.4625	97.7396	101.89	200.37
5.465	97.7411	101.885	200.374
5.4675	97.7426	101.879	200.378
5.47	97.7442	101.873	200.383
5.4725	97.7457	101.867	200.387
5.475	97.7473	101.862	200.391
5.4775	97.7489	101.856	200.395
5.48	97.7504	101.85	200.399
5.4825	97.7521	101.844	200.403
5.485	97.7537	101.839	200.408
5.4875	97.7553	101.833	200.412
5.49	97.757	101.827	200.416
5.4925	97.7586	101.822	200.42
5.495	97.7603	101.816	200.424
5.4975	97.762	101.81	200.428
5.5	97.7637	101.805	200.432
5.5025	97.7655	101.799	200.436
5.505	97.7672	101.793	200.44
5.5075	97.769	101.787	200.444
5.51	97.7707	101.782	200.447
5.5125	97.7725	101.776	200.451
5.515	97.7743	101.77	200.455
5.5175	97.7761	101.765	200.459
5.52	97.778	101.759	200.463
5.5225	97.7798	101.754	200.467
5.525	97.7816	101.748	200.47
5.5275	97.7835	101.742	200.474
5.53	97.7854	101.737	200.478
5.5325	97.7873	101.731	200.482
5.535	97.7892	101.725	200.485
5.5375	97.7911	101.72	200.489
5.54	97.7931	101.714	200.493
5.5425	97.795	101.708	200.496
5.545	97.797	101.703	200.5
5.5475	97.7989	101.697	200.504
5.55	97.8009	101.692	200.507
5.5525	97.8029	101.686	200.511
5.555	97.805	101.681	200.515
5.5575	97.807	101.675	200.518
5.56	97.809	101.669	200.522
5.5625	97.8111	101.664	200.525
5.565	97.8131	101.658	200.529
5.5675	97.8152	101.653	200.532
5.57	97.8173	101.647	200.536
5.5725	97.8194	101.642	200.539
5.575	97.8215	101.636	200.542
5.5775	97.8237	101.631	200.546
5.58	97.8258	101.625	200.549
5.5825	97.828	101.619	200.553
5.585	97.8301	101.614	200.556
5.5875	97.8323	101.608	200.559
5.59	97.8345	101.603	200.563
5.5925	97.8367	101.597	200.566
5.595	97.8389	101.592	200.569
5.5975	97.8411	101.586	200.572
5.6	97.8434	101.581	200.576
5.6025	97.8456	101.576	200.579
5.605	97.8479	101.57	200.582
5.6075	97.8502	101.565	200.585
5.61	97.8524	101.559	200.588
5.6125	97.8547	101.554	200.592
5.615	97.857	101.548	200.595
5.6175	97.8594	101.543	200.598
5.62	97.8617	101.537	200.601
5.6225	97.864	101.532	200.604
5.625	97.8664	101.527	200.607
5.6275	97.8688	101.521	200.61
5.63	97.8711	101.516	200.613
5.6325	97.8735	101.51	200.616
5.635	97.8759	101.505	200.619
5.6375	97.8783	101.5	200.622
5.64	97.8807	101.494	200.625
5.6425	97.8832	101.489	200.628
5.645	97.8856	101.483	200.631
5.6475	97.8881	101.478	200.634
5.65	97.8905	101.473	200.637
5.6525	97.893	101.467	200.64
5.655	97.8955	101.462	200.643
5.6575	97.898	101.457	200.645
5.66	97.9005	101.451	200.648
5.6625	97.903	101.446	200.651
5.665	97.9055	101.441	200.654
5.6675	97.908	101.435	200.657
5.67	97.9106	101.43	200.659
5.6725	97.9131	101.425	200.662
5.675	97.9157	101.42	200.665
5.6775	97.9183	101.414	200.668
5.68	97.9208	101.409	200.67
5.6825	97.9234	101.404	200.673
5.685	97.926	101.398	200.676
5.6875	97.9286	101.393	200.678
5.69	97.9313	101.388	200.681
5.6925	97.9339	101.383	200.683
5.695	97.9365	101.377	200.686
5.6975	97.9392	101.372	200.689
5.7	97.9418	101.367	200.691
5.7025	97.9445	101.362	200.694
5.705	97.9472	101.357	200.696
5.7075	97.9499	101.351	200.699
5.71	97.9526	101.346	200.701
5.7125	97.9553	101.341	200.704
5.715	97.958	101.336	200.706
5.7175	97.9607	101.331	200.709
5.72	97.9634	101.326	200.711
5.7225	97.9662	101.32	200.713
5.725	97.9689	101.315	200.716
5.7275	97.9717	101.31	200.718
5.73	97.9744	101.305	200.721
5.7325	97.9772	101.3	200.723
5.735	97.98	101.295	200.725
5.7375	97.9828	101.29	200.728
5.74	97.9856	101.284	200.73
5.7425	97.9884	101.279	200.732
5.745	97.9912	101.274	200.735
5.7475	97.994	101.269	200.737
5.75	97.9968	101.264	200.739
5.7525	97.9997	101.259	200.741
5.755	98.0025	101.254	200.743
5.7575	98.0054	101.249	200.746
5.76	98.0082	101.244	200.748
5.7625	98.0111	101.239	200.75
5.765	98.014	101.234	200.752
5.7675	98.0169	101.229	200.754
5.77	98.0198	101.224	200.756
5.7725	98.0227	101.219	200.759
5.775	98.0256	101.214	200.761
5.7775	98.0285	101.209	200.763
5.78	98.0314	101.204	200.765
5.7825	98.0343	101.199	200.767
5.785	98.0373	101.194	200.769
5.7875	98.0402	101.189	200.771
5.79	98.0432	101.184	200.773
5.7925	98.0461	101.179	200.775
5.795	98.0491	101.174	200.777
5.7975	98.0521	101.169	200.779
5.8	98.0551	101.164	200.781
5.8025	98.0581	101.159	200.783
5.805	98.061	101.154	200.785
5.8075	98.064	101.149	200.786
5.81	98.0671	101.145	200.788
5.8125	98.0701	101.14	200.79
5.815	98.0731	101.135	200.792
5.8175	98.0761	101.13	200.794
5.82	98.0792	101.125	200.796
5.8225	98.0822	101.12	200.798
5.825	98.0852	101.115	200.799
5.8275	98.0883	101.111	200.801
5.83	98.0914	101.106	200.803
5.8325	98.0944	101.101	200.805
5.835	98.0975	101.096	200.806
5.8375	98.1006	101.091	200.808
5.84	98.1037	101.087	200.81
5.8425	98.1068	101.082	200.812
5.845	98.1099	101.077	200.813
5.8475	98.113	101.072	200.815
5.85	98.1161	101.067	200.817
5.8525	98.1192	101.063	200.818
5.855	98.1223	101.058	200.82
5.8575	98.1254	101.053	200.821
5.86	98.1286	101.048	200.823
5.8625	98.1317	101.044	200.825
5.865	98.1348	101.039	200.826
5.8675	98.138	101.034	200.828
5.87	98.1411	101.03	200.829
5.8725	98.1443	101.025	200.831
5.875	98.1475	101.02	200.832
5.8775	98.1506	101.016	200.834
5.88	98.1538	101.011	200.835
5.8825	98.157	101.006	200.837
5.885	98.1602	101.002	200.838
5.8875	98.1634	100.997	200.84
5.89	98.1666	100.992	200.841
5.8925	98.1698	100.988	200.843
5.895	98.173	100.983	200.844
5.8975	98.1762	100.978	200.845
5.9	98.1794	100.974	200.847
5.9025	98.1826	100.969	200.848
5.905	98.1859	100.965	200.849
5.9075	98.1891	100.96	200.851
5.91	98.1923	100.956	200.852
5.9125	98.1956	100.951	200.853
5.915	98.1988	100.946	200.855
5.9175	98.2021	100.942	200.856
5.92	98.2053	100.937	200.857
5.9225	98.2086	100.933	200.859
5.925	98.2118	100.928	200.86
5.9275	98.2151	100.924	200.861
5.93	98.2184	100.919	200.862
5.9325	98.2217	100.915	200.864
5.935	98.2249	100.91	200.865
5.9375	98.2282	100.906	200.866
5.94	98.2315	100.901	200.867
5.9425	98.2348	100.897	200.868
5.945	98.2381	100.892	200.869
5.9475	98.2414	100.888	200.871
5.95	98.2447	100.884	200.872
5.9525	98.248	100.879	200.873
5.955	98.2513	100.875	200.874
5.9575	98.2547	100.87	200.875
5.96	98.258	100.866	200.876
5.9625	98.2613	100.862	200.877
5.965	98.2646	100.857	200.878
5.9675	98.268	100.853	200.879
5.97	98.2713	100.848	200.88
5.9725	98.2746	100.844	200.881
5.975	98.278	100.84	200.882
5.9775	98.2813	100.835	200.883
5.98	98.2847	100.831	200.884
5.9825	98.288	100.827	200.885
5.985	98.2914	100.822	200.886
5.9875	98.2947	100.818	200.887
5.99	98.2981	100.814	200.888
5.9925	98.3015	100.81	200.889
5.995	98.3048	100.805	200.89
5.9975	98.3082	100.801	200.891
6	98.3116	100.797	200.892
6.0025	98.315	100.793	200.892
6.005	98.3184	100.788	200.893
6.0075	98.3217	100.784	200.894
6.01	98.3251	100.78	200.895
6.0125	98.3285	100.776	200.896
6.015	98.3319	100.771	200.897
6.0175	98.3353	100.767	200.897
6.02	98.3387	100.763	200.898
6.0225	98.3421	100.759	200.899
6.025	98.3455	100.755	200.9
6.0275	98.3489	100.751	200.901
6.03	98.3523	100.746	200.901
6.0325	98.3557	100.742	200.902
6.035	98.3592	100.738	200.903
6.0375	98.3626	100.734	200.903
6.04	98.366	100.73	200.904
6.0425	98.3694	100.726	200.905
6.045	98.3728	100.722	200.906
6.0475	98.3763	100.718	200.906
6.05	98.3797	100.713	200.907
6.0525	98.3831	100.709	200.908
6.055	98.3866	100.705	200.908
6.0575	98.39	100.701	200.909
6.06	98.3934	100.697	200.909
6.0625	98.3969	100.693	200.91
6.065	98.4003	100.689	200.911
6.0675	98.4038	100.685	200.911
6.07	98.4072	100.681	200.912
6.0725	98.4106	100.677	200.912
6.075	98.4141	100.673	200.913
6.0775	98.4175	100.669	200.913
6.08	98.421	100.665	200.914
6.0825	98.4244	100.661	200.914
6.085	98.4279	100.657	200.915
6.0875	98.4314	100.653	200.915
6.09	98.4348	100.649	200.916
6.0925	98.4383	100.645	200.916
6.095	98.4417	100.641	200.917
6.0975	98.4452	100.638	200.917
6.1	98.4487	100.634	200.918
6.1025	98.4521	100.63	200.918
6.105	98.4556	100.626	200.919
6.1075	98.4591	100.622	200.919
6.11	98.4625	100.618	200.919
6.1125	98.466	100.614	200.92
6.115	98.4695	100.61	200.92
6.1175	98.473	100.607	200.921
6.12	98.4764	100.603	200.921
6.1225	98.4799	100.599	200.921
6.125	98.4834	100.595	200.922
6.1275	98.4869	100.591	200.922
6.13	98.4904	100.587	200.922
6.1325	98.4938	100.584	200.923
6.135	98.4973	100.58	200.923
6.1375	98.5008	100.576	200.923
6.14	98.5043	100.572	200.923
6.1425	98.5078	100.569	200.924
6.145	98.5113	100.565	200.924
6.1475	98.5147	100.561	200.924
6.15	98.5182	100.557	200.924
6.1525	98.5217	100.554	200.925
6.155	98.5252	100.55	200.925
6.1575	98.5287	100.546	200.925
6.16	98.5322	100.543	200.925
6.1625	98.5357	100.539	200.925
6.165	98.5392	100.535	200.926
6.1675	98.5427	100.531	200.926
6.17	98.5461	100.528	200.926
6.1725	98.5496	100.524	200.926
6.175	98.5531	100.521	200.926
6.1775	98.5566	100.517	200.926
6.18	98.5601	100.513	200.927
6.1825	98.5636	100.51	200.927
6.185	98.5671	100.506	200.927
6.1875	98.5706	100.502	200.927
6.19	98.5741	100.499	200.927
6.1925	98.5776	100.495	200.927
6.195	98.5811	100.492	200.927
6.1975	98.5846	100.488	200.927
6.2	98.5881	100.485	200.927
6.2025	98.5916	100.481	200.927
6.205	98.5951	100.478	200.927
6.2075	98.5986	100.474	200.927
6.21	98.602	100.471	200.927
6.2125	98.6055	100.467	200.927
6.215	98.609	100.463	200.927
6.2175	98.6125	100.46	200.927
6.22	98.616	100.457	200.927
6.2225	98.6195	100.453	200.927
6.225	98.623	100.45	200.927
6.2275	98.6265	100.446	200.927
6.23	98.63	100.443	200.927
6.2325	98.6335	100.439	200.927
6.235	98.637	100.436	200.927
6.2375	98.6405	100.432	200.927
6.24	98.644	100.429	200.927
6.2425	98.6475	100.426	200.927
6.245	98.6509	100.422	200.927
6.2475	98.6544	100.419	200.927
6.25	98.6579	100.415	200.927
6.2525	98.6614	100.412	200.926
6.255	98.6649	100.409	200.926
6.2575	98.6684	100.405	200.926
6.26	98.6719	100.402	200.926
6.2625	98.6754	100.399	200.926
6.265	98.6788	100.395	200.926
6.2675	98.6823	100.392	200.926
6.27	98.6858	100.389	200.925
6.2725	98.6893	100.385	200.925
6.275	98.6928	100.382	200.925
6.2775	98.6963	100.379	200.925
6.28	98.6997	100.376	200.925
6.2825	98.7032	100.372	200.924
6.285	98.7067	100.369	200.924
6.2875	98.7102	100.366	200.924
6.29	98.7136	100.363	200.924
6.2925	98.7171	100.359	200.923
6.295	98.7206	100.356	200.923
6.2975	98.7241	100.353	200.923
6.3	98.7275	100.35	200.923
6.3025	98.731	100.347	200.922
6.305	98.7345	100.343	200.922
6.3075	98.7379	100.34	200.922
6.31	98.7414	100.337	200.921
6.3125	98.7449	100.334	200.921
6.315	98.7483	100.331	200.921
6.3175	98.7518	100.328	200.92
6.32	98.7553	100.325	200.92
6.3225	98.7587	100.321	200.92
6.325	98.7622	100.318	200.919
6.3275	98.7656	100.315	200.919
6.33	98.7691	100.312	200.919
6.3325	98.7726	100.309	200.918
6.335	98.776	100.306	200.918
6.3375	98.7795	100.303	200.918
6.34	98.7829	100.3	200.917
6.3425	98.7864	100.297	200.917
6.345	98.7898	100.294	200.916
6.3475	98.7932	100.291	200.916
6.35	98.7967	100.288	200.916
6.3525	98.8001	100.285	200.915
6.355	98.8036	100.282	200.915
6.3575	98.807	100.279	200.914
6.36	98.8104	100.276	200.914
6.3625	98.8139	100.273	200.913
6.365	98.8173	100.27	200.913
6.3675	98.8207	100.267	200.912
6.37	98.8242	100.264	200.912
6.3725	98.8276	100.261	200.911
6.375	98.831	100.258	200.911
6.3775	98.8344	100.255	200.91
6.38	98.8379	100.252	200.91
6.3825	98.8413	100.249	200.909
6.385	98.8447	100.246	200.909
6.3875	98.8481	100.243	200.908
6.39	98.8515	100.241	200.908
6.3925	98.8549	100.238	200.907
6.395	98.8583	100.235	200.907
6.3975	98.8617	100.232	200.906
6.4	98.8652	100.229	200.906
6.4025	98.8686	100.226	200.905
6.405	98.872	100.223	200.905
6.4075	98.8753	100.221	200.904
6.41	98.8787	100.218	200.903
6.4125	98.8821	100.215	200.903
6.415	98.8855	100.212	200.902
6.4175	98.8889	100.209	200.902
6.42	98.8923	100.207	200.901
6.4225	98.8957	100.204	200.9
6.425	98.8991	100.201	200.9
6.4275	98.9024	100.198	200.899
6.43	98.9058	100.196	200.899
6.4325	98.9092	100.193	200.898
6.435	98.9126	100.19	200.897
6.4375	98.9159	100.187	200.897
6.44	98.9193	100.185	200.896
6.4425	98.9227	100.182	200.895
6.445	98.926	100.179	200.895
6.4475	98.9294	100.177	200.894
6.45	98.9327	100.174	200.893
6.4525	98.9361	100.171	200.893
6.455	98.9394	100.169	200.892
6.4575	98.9428	100.166	200.891
6.46	98.9461	100.163	200.89
6.4625	98.9495	100.161	200.89
6.465	98.9528	100.158	200.889
6.4675	98.9562	100.155	200.888
6.47	98.9595	100.153	200.888
6.4725	98.9628	100.15	200.887
6.475	98.9661	100.148	200.886
6.4775	98.9695	100.145	200.885
6.48	98.9728	100.143	200.885
6.4825	98.9761	100.14	200.884
6.485	98.9794	100.137	200.883
6.4875	98.9827	100.135	200.882
6.49	98.9861	100.132	200.882
6.4925	98.9894	100.13	200.881
6.495	98.9927	100.127	200.88
6.4975	98.996	100.125	200.879
6.5	98.9993	100.122	200.879
6.5025	99.0026	100.12	200.878
6.505	99.0059	100.117	200.877
6.5075	99.0091	100.115	200.876
6.51	99.0124	100.112	200.875
6.5125	99.0157	100.11	200.874
6.515	99.019	100.107	200.874
6.5175	99.0223	100.105	200.873
6.52	99.0256	100.102	200.872
6.5225	99.0288	100.1	200.871
6.525	99.0321	100.098	200.87
6.5275	99.0354	100.095	200.869
6.53	99.0386	100.093	200.869
6.5325	99.0419	100.09	200.868
6.535	99.0451	100.088	200.867
6.5375	99.0484	100.086	200.866
6.54	99.0516	100.083	200.865
6.5425	99.0549	100.081	200.864
6.545	99.0581	100.078	200.863
6.5475	99.0614	100.076	200.863
6.55	99.0646	100.074	200.862
6.5525	99.0678	100.071	200.861
6.555	99.071	100.069	200.86
6.5575	99.0743	100.067	200.859
6.56	99.0775	100.064	200.858
6.5625	99.0807	100.062	200.857
6.565	99.0839	100.06	200.856
6.5675	99.0871	100.058	200.855
6.57	99.0903	100.055	200.854
6.5725	99.0935	100.053	200.853
6.575	99.0967	100.051	200.852
6.5775	99.0999	100.049	200.852
6.58	99.1031	100.046	200.851
6.5825	99.1063	100.044	200.85
6.585	99.1095	100.042	200.849
6.5875	99.1127	100.04	200.848
6.59	99.1159	100.037	200.847
6.5925	99.119	100.035	200.846
6.595	99.1222	100.033	200.845
6.5975	99.1254	100.031	200.844
6.6	99.1285	100.029	200.843
6.6025	99.1317	100.026	200.842
6.605	99.1349	100.024	200.841
6.6075	99.138	100.022	200.84
6.61	99.1412	100.02	200.839
6.6125	99.1443	100.018	200.838
6.615	99.1474	100.016	200.837
6.6175	99.1506	100.014	200.836
6.62	99.1537	100.011	200.835
6.6225	99.1568	100.009	200.834
6.625	99.16	100.007	200.833
6.6275	99.1631	100.005	200.832
6.63	99.1662	100.003	200.831
6.6325	99.1693	100.001	200.83
6.635	99.1724	99.9989	200.829
6.6375	99.1755	99.9968	200.828
6.64	99.1786	99.9947	200.827
6.6425	99.1817	99.9927	200.826
6.645	99.1848	99.9906	200.825
6.6475	99.1879	99.9886	200.823
6.65	99.191	99.9866	200.822
6.6525	99.1941	99.9846	200.821
6.655	99.1972	99.9826	200.82
6.6575	99.2002	99.9806	200.819
6.66	99.2033	99.9786	200.818
6.6625	99.2064	99.9766	200.817
6.665	99.2094	99.9746	200.816
6.6675	99.2125	99.9726	200.815
6.67	99.2155	99.9707	200.814
6.6725	99.2186	99.9687	200.813
6.675	99.2216	99.9667	200.812
6.6775	99.2247	99.9648	200.811
6.68	99.2277	99.9629	200.809
6.6825	99.2307	99.9609	200.808
6.685	99.2338	99.959	200.807
6.6875	99.2368	99.9571	200.806
6.69	99.2398	99.9552	200.805
6.6925	99.2428	99.9533	200.804
6.695	99.2458	99.9514	200.803
6.6975	99.2489	99.9495	200.802
6.7	99.2519	99.9477	200.8
6.7025	99.2549	99.9458	200.799
6.705	99.2578	99.944	200.798
6.7075	99.2608	99.9421	200.797
6.71	99.2638	99.9403	200.796
6.7125	99.2668	99.9384	200.795
6.715	99.2698	99.9366	200.794
6.7175	99.2728	99.9348	200.792
6.72	99.2757	99.933	200.791
6.7225	99.2787	99.9312	200.79
6.725	99.2816	99.9294	200.789
6.7275	99.2846	99.9276	200.788
6.73	99.2876	99.9258	200.787
6.7325	99.2905	99.924	200.785
6.735	99.2934	99.9222	200.784
6.7375	99.2964	99.9205	200.783
6.74	99.2993	99.9187	200.782
6.7425	99.3022	99.917	200.781
6.745	99.3052	99.9152	200.78
6.7475	99.3081	99.9135	200.778
6.75	99.311	99.9118	200.777
6.7525	99.3139	99.9101	200.776
6.755	99.3168	99.9084	200.775
6.7575	99.3197	99.9066	200.774
6.76	99.3226	99.905	200.772
6.7625	99.3255	99.9033	200.771
6.765	99.3284	99.9016	200.77
6.7675	99.3313	99.8999	200.769
6.77	99.3342	99.8982	200.768
6.7725	99.337	99.8966	200.766
6.775	99.3399	99.8949	200.765
6.7775	99.3428	99.8933	200.764
6.78	99.3456	99.8917	200.763
6.7825	99.3485	99.89	200.761
6.785	99.3513	99.8884	200.76
6.7875	99.3542	99.8868	200.759
6.79	99.357	99.8852	200.758
6.7925	99.3599	99.8836	200.757
6.795	99.3627	99.882	200.755
6.7975	99.3655	99.8804	200.754
6.8	99.3683	99.8788	200.753
6.8025	99.3712	99.8772	200.752
6.805	99.374	99.8757	200.75
6.8075	99.3768	99.8741	200.749
6.81	99.3796	99.8726	200.748
6.8125	99.3824	99.871	200.747
6.815	99.3852	99.8695	200.745
6.8175	99.388	99.8679	200.744
6.82	99.3908	99.8664	200.743
6.8225	99.3935	99.8649	200.742
6.825	99.3963	99.8634	200.74
6.8275	99.3991	99.8619	200.739
6.83	99.4019	99.8604	200.738
6.8325	99.4046	99.8589	200.736
6.835	99.4074	99.8574	200.735
6.8375	99.4101	99.8559	200.734
6.84	99.4129	99.8545	200.733
6.8425	99.4156	99.853	200.731
6.845	99.4184	99.8515	200.73
6.8475	99.4211	99.8501	200.729
6.85	99.4238	99.8487	200.728
6.8525	99.4266	99.8472	200.726
6.855	99.4293	99.8458	200.725
6.8575	99.432	99.8444	200.724
6.86	99.4347	99.843	200.722
6.8625	99.4374	99.8416	200.721
6.865	99.4401	99.8402	200.72
6.8675	99.4428	99.8388	200.718
6.87	99.4455	99.8374	200.717
6.8725	99.4482	99.836	200.716
6.875	99.4508	99.8346	200.715
6.8775	99.4535	99.8332	200.713
6.88	99.4562	99.8319	200.712
6.8825	99.4589	99.8305	200.711
6.885	99.4615	99.8292	200.709
6.8875	99.4642	99.8278	200.708
6.89	99.4668	99.8265	200.707
6.8925	99.4695	99.8252	200.705
6.895	99.4721	99.8239	200.704
6.8975	99.4747	99.8226	200.703
6.9	99.4774	99.8212	200.701
6.9025	99.48	99.8199	200.7
6.905	99.4826	99.8186	200.699
6.9075	99.4852	99.8174	200.697
6.91	99.4878	99.8161	200.696
6.9125	99.4904	99.8148	200.695
6.915	99.493	99.8135	200.693
6.9175	99.4956	99.8123	200.692
6.92	99.4982	99.811	200.691
6.9225	99.5008	99.8098	200.689
6.925	99.5034	99.8085	200.688
6.9275	99.506	99.8073	200.687
6.93	99.5085	99.8061	200.685
6.9325	99.5111	99.8048	200.684
6.935	99.5137	99.8036	200.683
6.9375	99.5162	99.8024	200.681
6.94	99.5188	99.8012	200.68
6.9425	99.5213	99.8	200.679
6.945	99.5239	99.7988	200.677
6.9475	99.5264	99.7976	200.676
6.95	99.5289	99.7965	200.675
6.9525	99.5315	99.7953	200.673
6.955	99.534	99.7941	200.672
6.9575	99.5365	99.793	200.671
6.96	99.539	99.7918	200.669
6.9625	99.5415	99.7907	200.668
6.965	99.544	99.7895	200.666
6.9675	99.5465	99.7884	200.665
6.97	99.549	99.7873	200.664
6.9725	99.5515	99.7861	200.662
6.975	99.5539	99.785	200.661
6.9775	99.5564	99.7839	200.66
6.98	99.5589	99.7828	200.658
6.9825	99.5614	99.7817	200.657
6.985	99.5638	99.7806	200.656
6.9875	99.5663	99.7795	200.654
6.99	99.5687	99.7785	200.653
6.9925	99.5712	99.7774	200.651
6.995	99.5736	99.7763	200.65
6.9975	99.576	99.7753	200.649
7	99.5785	99.7742	200.647
7.0025	99.5809	99.7731	200.646
7.005	99.5833	99.7721	200.645
7.0075	99.5857	99.7711	200.643
7.01	99.5881	99.77	200.642
7.0125	99.5905	99.769	200.64
7.015	99.5929	99.768	200.639
7.0175	99.5953	99.767	200.638
7.02	99.5977	99.766	200.636
7.0225	99.6001	99.765	200.635
7.025	99.6024	99.764	200.634
7.0275	99.6048	99.763	200.632
7.03	99.6072	99.762	200.631
7.0325	99.6095	99.761	200.629
7.035	99.6119	99.7601	200.628
7.0375	99.6143	99.7591	200.627
7.04	99.6166	99.7581	200.625
7.0425	99.6189	99.7572	200.624
7.045	99.6213	99.7562	200.622
7.0475	99.6236	99.7553	200.621
7.05	99.6259	99.7544	200.62
7.0525	99.6282	99.7534	200.618
7.055	99.6306	99.7525	200.617
7.0575	99.6329	99.7516	200.616
7.06	99.6352	99.7507	200.614
7.0625	99.6375	99.7498	200.613
7.065	99.6398	99.7489	200.611
7.0675	99.642	99.748	200.61
7.07	99.6443	99.7471	200.609
7.0725	99.6466	99.7462	200.607
7.075	99.6489	99.7453	200.606
7.0775	99.6511	99.7444	200.604
7.08	99.6534	99.7436	200.603
7.0825	99.6557	99.7427	200.602
7.085	99.6579	99.7419	200.6
7.0875	99.6602	99.741	200.599
7.09	99.6624	99.7402	200.597
7.0925	99.6646	99.7393	200.596
7.095	99.6669	99.7385	200.595
7.0975	99.6691	99.7377	200.593
7.1	99.6713	99.7368	200.592
7.1025	99.6735	99.736	200.59
7.105	99.6757	99.7352	200.589
7.1075	99.6779	99.7344	200.588
7.11	99.6801	99.7336	200.586
7.1125	99.6823	99.7328	200.585
7.115	99.6845	99.732	200.583
7.1175	99.6867	99.7312	200.582
7.12	99.6889	99.7305	200.581
7.1225	99.6911	99.7297	200.579
7.125	99.6932	99.7289	200.578
7.1275	99.6954	99.7282	200.576
7.13	99.6975	99.7274	200.575
7.1325	99.6997	99.7267	200.574
7.135	99.7018	99.7259	200.572
7.1375	99.704	99.7252	200.571
7.14	99.7061	99.7244	200.569
7.1425	99.7083	99.7237	200.568
7.145	99.7104	99.723	200.567
7.1475	99.7125	99.7223	200.565
7.15	99.7146	99.7215	200.564
7.1525	99.7167	99.7208	200.562
7.155	99.7188	99.7201	200.561
7.1575	99.7209	99.7194	200.56
7.16	99.723	99.7187	200.558
7.1625	99.7251	99.7181	200.557
7.165	99.7272	99.7174	200.555
7.1675	99.7293	99.7167	200.554
7.17	99.7313	99.716	200.553
7.1725	99.7334	99.7154	200.551
7.175	99.7355	99.7147	200.55
7.1775	99.7375	99.714	200.548
7.18	99.7396	99.7134	200.547
7.1825	99.7416	99.7127	200.546
7.185	99.7437	99.7121	200.544
7.1875	99.7457	99.7115	200.543
7.19	99.7477	99.7108	200.541
7.1925	99.7498	99.7102	200.54
7.195	99.7518	99.7096	200.539
7.1975	99.7538	99.709	200.537
7.2	99.7558	99.7084	200.536
7.2025	99.7578	99.7077	200.534
7.205	99.7598	99.7071	200.533
7.2075	99.7618	99.7065	200.532
7.21	99.7638	99.706	200.53
7.2125	99.7658	99.7054	200.529
7.215	99.7678	99.7048	200.527
7.2175	99.7697	99.7042	200.526
7.22	99.7717	99.7036	200.525
7.2225	99.7737	99.7031	200.523
7.225	99.7756	99.7025	200.522
7.2275	99.7776	99.702	200.52
7.23	99.7795	99.7014	200.519
7.2325	99.7815	99.7009	200.518
7.235	99.7834	99.7003	200.516
7.2375	99.7853	99.6998	200.515
7.24	99.7873	99.6992	200.513
7.2425	99.7892	99.6987	200.512
7.245	99.7911	99.6982	200.511
7.2475	99.793	99.6977	200.509
7.25	99.7949	99.6972	200.508
7.2525	99.7968	99.6967	200.507
7.255	99.7987	99.6961	200.505
7.2575	99.8006	99.6956	200.504
7.26	99.8025	99.6952	200.502
7.2625	99.8044	99.6947	200.501
7.265	99.8062	99.6942	200.5
7.2675	99.8081	99.6937	200.498
7.27	99.81	99.6932	200.497
7.2725	99.8118	99.6928	200.495
7.275	99.8137	99.6923	200.494
7.2775	99.8155	99.6918	200.493
7.28	99.8174	99.6914	200.491
7.2825	99.8192	99.6909	200.49
7.285	99.8211	99.6905	200.488
7.2875	99.8229	99.69	200.487
7.29	99.8247	99.6896	200.486
7.2925	99.8265	99.6891	200.484
7.295	99.8283	99.6887	200.483
7.2975	99.8301	99.6883	200.482
7.3	99.8319	99.6879	200.48
7.3025	99.8337	99.6875	200.479
7.305	99.8355	99.687	200.477
7.3075	99.8373	99.6866	200.476
7.31	99.8391	99.6862	200.475
7.3125	99.8409	99.6858	200.473
7.315	99.8426	99.6854	200.472
7.3175	99.8444	99.685	200.471
7.32	99.8462	99.6847	200.469
7.3225	99.8479	99.6843	200.468
7.325	99.8497	99.6839	200.466
7.3275	99.8514	99.6835	200.465
7.33	99.8532	99.6832	200.464
7.3325	99.8549	99.6828	200.462
7.335	99.8566	99.6824	200.461
7.3375	99.8584	99.6821	200.46
7.34	99.8601	99.6817	200.458
7.3425	99.8618	99.6814	200.457
7.345	99.8635	99.681	200.455
7.3475	99.8652	99.6807	200.454
7.35	99.8669	99.6804	200.453
7.3525	99.8686	99.68	200.451
7.355	99.8703	99.6797	200.45
7.3575	99.872	99.6794	200.449
7.36	99.8736	99.6791	200.447
7.3625	99.8753	99.6788	200.446
7.365	99.877	99.6785	200.445
7.3675	99.8787	99.6782	200.443
7.37	99.8803	99.6779	200.442
7.3725	99.882	99.6776	200.44
7.375	99.8836	99.6773	200.439
7.3775	99.8853	99.677	200.438
7.38	99.8869	99.6767	200.436
7.3825	99.8885	99.6764	200.435
7.385	99.8902	99.6761	200.434
7.3875	99.8918	99.6759	200.432
7.39	99.8934	99.6756	200.431
7.3925	99.895	99.6753	200.43
7.395	99.8966	99.6751	200.428
7.3975	99.8982	99.6748	200.427
7.4	99.8998	99.6746	200.426
7.4025	99.9014	99.6743	200.424
7.405	99.903	99.6741	200.423
7.4075	99.9046	99.6738	200.422
7.41	99.9062	99.6736	200.42
7.4125	99.9077	99.6734	200.419
7.415	99.9093	99.6731	200.418
7.4175	99.9109	99.6729	200.416
7.42	99.9124	99.6727	200.415
7.4225	99.914	99.6725	200.414
7.425	99.9155	99.6723	200.412
7.4275	99.9171	99.6721	200.411
7.43	99.9186	99.6719	200.41
7.4325	99.9201	99.6717	200.408
7.435	99.9217	99.6715	200.407
7.4375	99.9232	99.6713	200.406
7.44	99.9247	99.6711	200.404
7.4425	99.9262	99.6709	200.403
7.445	99.9277	99.6707	200.402
7.4475	99.9292	99.6705	200.4
7.45	99.9307	99.6704	200.399
7.4525	99.9322	99.6702	200.398
7.455	99.9337	99.67	200.396
7.4575	99.9352	99.6699	200.395
7.46	99.9367	99.6697	200.394
7.4625	99.9381	99.6695	200.392
7.465	99.9396	99.6694	200.391
7.4675	99.9411	99.6692	200.39
7.47	99.9425	99.6691	200.388
7.4725	99.944	99.669	200.387
7.475	99.9454	99.6688	200.386
7.4775	99.9469	99.6687	200.384
7.48	99.9483	99.6685	200.383
7.4825	99.9497	99.6684	200.382
7.485	99.9512	99.6683	200.381
7.4875	99.9526	99.6682	200.379
7.49	99.954	99.6681	200.378
7.4925	99.9554	99.6679	200.377
7.495	99.9568	99.6678	200.375
7.4975	99.9582	99.6677	200.374
7.5	99.9596	99.6676	200.373
7.5025	99.961	99.6675	200.371
7.505	99.9624	99.6674	200.37
7.5075	99.9638	99.6673	200.369
7.51	99.9652	99.6673	200.368
7.5125	99.9666	99.6672	200.366
7.515	99.9679	99.6671	200.365
7.5175	99.9693	99.667	200.364
7.52	99.9707	99.6669	200.362
7.5225	99.972	99.6669	200.361
7.525	99.9734	99.6668	200.36
7.5275	99.9747	99.6667	200.359
7.53	99.9761	99.6667	200.357
7.5325	99.9774	99.6666	200.356
7.535	99.9787	99.6666	200.355
7.5375	99.9801	99.6665	200.353
7.54	99.9814	99.6665	200.352
7.5425	99.9827	99.6664	200.351
7.545	99.984	99.6664	200.35
7.5475	99.9853	99.6663	200.348
7.55	99.9866	99.6663	200.347
7.5525	99.9879	99.6663	200.346
7.555	99.9892	99.6662	200.345
7.5575	99.9905	99.6662	200.343
7.56	99.9918	99.6662	200.342
7.5625	99.9931	99.6662	200.341
7.565	99.9944	99.6662	200.339
7.5675	99.9956	99.6661	200.338
7.57	99.9969	99.6661	200.337
7.5725	99.9982	99.6661	200.336
7.575	99.9994	99.6661	200.334
7.5775	100.001	99.6661	200.333
7.58	100.002	99.6661	200.332
7.5825	100.003	99.6661	200.331
7.585	100.004	99.6661	200.329
7.5875	100.006	99.6662	200.328
7.59	100.007	99.6662	200.327
7.5925	100.008	99.6662	200.326
7.595	100.009	99.6662	200.324
7.5975	100.011	99.6662	200.323
7.6	100.012	99.6663	200.322
7.6025	100.013	99.6663	200.321
7.605	100.014	99.6663	200.32
7.6075	100.015	99.6664	200.318
7.61	100.017	99.6664	200.317
7.6125	100.018	99.6665	200.316
7.615	100.019	99.6665	200.315
7.6175	100.02	99.6665	200.313
7.62	100.021	99.6666	200.312
7.6225	100.022	99.6667	200.311
7.625	100.024	99.6667	200.31
7.6275	100.025	99.6668	200.309
7.63	100.026	99.6668	200.307
7.6325	100.027	99.6669	200.306
7.635	100.028	99.667	200.305
7.6375	100.029	99.667	200.304
7.64	100.03	99.6671	200.302
7.6425	100.032	99.6672	200.301
7.645	100.033	99.6673	200.3
7.6475	100.034	99.6674	200.299
7.65	100.035	99.6674	200.298
7.6525	100.036	99.6675	200.296
7.655	100.037	99.6676	200.295
7.6575	100.038	99.6677	200.294
7.66	100.039	99.6678	200.293
7.6625	100.04	99.6679	200.292
7.665	100.042	99.668	200.29
7.6675	100.043	99.6681	200.289
7.67	100.044	99.6682	200.288
7.6725	100.045	99.6683	200.287
7.675	100.046	99.6684	200.286
7.6775	100.047	99.6686	200.284
7.68	100.048	99.6687	200.283
7.6825	100.049	99.6688	200.282
7.685	100.05	99.6689	200.281
7.6875	100.051	99.6691	200.28
7.69	100.052	99.6692	200.279
7.6925	100.053	99.6693	200.277
7.695	100.054	99.6694	200.276
7.6975	100.055	99.6696	200.275
7.7	100.056	99.6697	200.274
7.7025	100.057	99.6699	200.273
7.705	100.058	99.67	200.272
7.7075	100.059	99.6702	200.27
7.71	100.06	99.6703	200.269
7.7125	100.061	99.6705	200.268
7.715	100.062	99.6706	200.267
7.7175	100.063	99.6708	200.266
7.72	100.064	99.6709	200.265
7.7225	100.065	99.6711	200.263
7.725	100.066	99.6713	200.262
7.7275	100.067	99.6714	200.261
7.73	100.068	99.6716	200.26
7.7325	100.069	99.6718	200.259
7.735	100.07	99.6719	200.258
7.7375	100.071	99.6721	200.257
7.74	100.072	99.6723	200.255
7.7425	100.073	99.6725	200.254
7.745	100.074	99.6727	200.253
7.7475	100.075	99.6728	200.252
7.75	100.076	99.673	200.251
7.7525	100.077	99.6732	200.25
7.755	100.078	99.6734	200.249
7.7575	100.079	99.6736	200.248
7.76	100.08	99.6738	200.246
7.7625	100.081	99.674	200.245
7.765	100.082	99.6742	200.244
7.7675	100.083	99.6744	200.243
7.77	100.083	99.6746	200.242
7.7725	100.084	99.6748	200.241
7.775	100.085	99.675	200.24
7.7775	100.086	99.6753	200.239
7.78	100.087	99.6755	200.237
7.7825	100.088	99.6757	200.236
7.785	100.089	99.6759	200.235
7.7875	100.09	99.6761	200.234
7.79	100.091	99.6764	200.233
7.7925	100.091	99.6766	200.232
7.795	100.092	99.6768	200.231
7.7975	100.093	99.677	200.23
7.8	100.094	99.6773	200.229
7.8025	100.095	99.6775	200.228
7.805	100.096	99.6777	200.226
7.8075	100.097	99.678	200.225
7.81	100.097	99.6782	200.224
7.8125	100.098	99.6785	200.223
7.815	100.099	99.6787	200.222
7.8175	100.1	99.679	200.221
7.82	100.101	99.6792	200.22
7.8225	100.102	99.6795	200.219
7.825	100.102	99.6797	200.218
7.8275	100.103	99.68	200.217
7.83	100.104	99.6802	200.216
7.8325	100.105	99.6805	200.215
7.835	100.106	99.6808	200.214
7.8375	100.106	99.681	200.212
7.84	100.107	99.6813	200.211
7.8425	100.108	99.6816	200.21
7.845	100.109	99.6818	200.209
7.8475	100.11	99.6821	200.208
7.85	100.11	99.6824	200.207
7.8525	100.111	99.6827	200.206
7.855	100.112	99.6829	200.205
7.8575	100.113	99.6832	200.204
7.86	100.114	99.6835	200.203
7.8625	100.114	99.6838	200.202
7.865	100.115	99.6841	200.201
7.8675	100.116	99.6844	200.2
7.87	100.117	99.6846	200.199
7.8725	100.117	99.6849	200.198
7.875	100.118	99.6852	200.197
7.8775	100.119	99.6855	200.196
7.88	100.119	99.6858	200.195
7.8825	100.12	99.6861	200.194
7.885	100.121	99.6864	200.193
7.8875	100.122	99.6867	200.192
7.89	100.122	99.687	200.191
7.8925	100.123	99.6873	200.19
7.895	100.124	99.6876	200.189
7.8975	100.124	99.6879	200.188
7.9	100.125	99.6883	200.187
7.9025	100.126	99.6886	200.186
7.905	100.127	99.6889	200.185
7.9075	100.127	99.6892	200.184
7.91	100.128	99.6895	200.183
7.9125	100.129	99.6898	200.182
7.915	100.129	99.6902	200.181
7.9175	100.13	99.6905	200.18
7.92	100.131	99.6908	200.179
7.9225	100.131	99.6911	200.178
7.925	100.132	99.6915	200.177
7.9275	100.133	99.6918	200.176
7.93	100.133	99.6921	200.175
7.9325	100.134	99.6925	200.174
7.935	100.135	99.6928	200.173
7.9375	100.135	99.6931	200.172
7.94	100.136	99.6935	200.171
7.9425	100.137	99.6938	200.17
7.945	100.137	99.6941	200.169
7.9475	100.138	99.6945	200.168
7.95	100.138	99.6948	200.167
7.9525	100.139	99.6952	200.166
7.955	100.14	99.6955	200.165
7.9575	100.14	99.6959	200.164
7.96	100.141	99.6962	200.163
7.9625	100.142	99.6966	200.162
7.965	100.142	99.6969	200.161
7.9675	100.143	99.6973	200.16
7.97	100.143	99.6976	200.159
7.9725	100.144	99.698	200.158
7.975	100.145	99.6984	200.157
7.9775	100.145	99.6987	200.156
7.98	100.146	99.6991	200.155
7.9825	100.146	99.6994	200.154
7.985	100.147	99.6998	200.153
7.9875	100.147	99.7002	200.152
7.99	100.148	99.7005	200.151
7.9925	100.149	99.7009	200.15
7.995	100.149	99.7013	200.15
7.9975	100.15	99.7017	200.149
8	100.15	99.702	200.148
8.0025	100.151	99.7024	200.147
8.005	100.151	99.7028	200.146
8.0075	100.152	99.7032	200.145
8.01	100.152	99.7035	200.144
8.0125	100.153	99.7039	200.143
8.015	100.154	99.7043	200.142
8.0175	100.154	99.7047	200.141
8.02	100.155	99.7051	200.14
8.0225	100.155	99.7055	200.139
8.025	100.156	99.7058	200.139
8.0275	100.156	99.7062	200.138
8.03	100.157	99.7066	200.137
8.0325	100.157	99.707	200.136
8.035	100.158	99.7074	200.135
8.0375	100.158	99.7078	200.134
8.04	100.159	99.7082	200.133
8.0425	100.159	99.7086	200.132
8.045	100.16	99.709	200.131
8.0475	100.16	99.7094	200.13
8.05	100.161	99.7098	200.13
8.0525	100.161	99.7102	200.129
8.055	100.162	99.7106	200.128
8.0575	100.162	99.711	200.127
8.06	100.163	99.7114	200.126
8.0625	100.163	99.7118	200.125
8.065	100.164	99.7122	200.124
8.0675	100.164	99.7126	200.123
8.07	100.164	99.713	200.122
8.0725	100.165	99.7134	200.122
8.075	100.165	99.7139	200.121
8.0775	100.166	99.7143	200.12
8.08	100.166	99.7147	200.119
8.0825	100.167	99.7151	200.118
8.085	100.167	99.7155	200.117
8.0875	100.168	99.7159	200.116
8.09	100.168	99.7164	200.116
8.0925	100.168	99.7168	200.115
8.095	100.169	99.7172	200.114
8.0975	100.169	99.7176	200.113
8.1	100.17	99.718	200.112
8.1025	100.17	99.7185	200.111
8.105	100.171	99.7189	200.111
8.1075	100.171	99.7193	200.11
8.11	100.171	99.7197	200.109
8.1125	100.172	99.7202	200.108
8.115	100.172	99.7206	200.107
8.1175	100.173	99.721	200.106
8.12	100.173	99.7215	200.106
8.1225	100.173	99.7219	200.105
8.125	100.174	99.7223	200.104
8.1275	100.174	99.7228	200.103
8.13	100.175	99.7232	200.102
8.1325	100.175	99.7236	200.101
8.135	100.175	99.7241	200.101
8.1375	100.176	99.7245	200.1
8.14	100.176	99.7249	200.099
8.1425	100.176	99.7254	200.098
8.145	100.177	99.7258	200.097
8.1475	100.177	99.7263	200.097
8.15	100.178	99.7267	200.096
8.1525	100.178	99.7271	200.095
8.155	100.178	99.7276	200.094
8.1575	100.179	99.728	200.093
8.16	100.179	99.7285	200.093
8.1625	100.179	99.7289	200.092
8.165	100.18	99.7294	200.091
8.1675	100.18	99.7298	200.09
8.17	100.18	99.7303	200.089
8.1725	100.181	99.7307	200.089
8.175	100.181	99.7312	200.088
8.1775	100.181	99.7316	200.087
8.18	100.182	99.7321	200.086
8.1825	100.182	99.7325	200.085
8.185	100.182	99.733	200.085
8.1875	100.183	99.7334	200.084
8.19	100.183	99.7339	200.083
8.1925	100.183	99.7344	200.082
8.195	100.184	99.7348	200.082
8.1975	100.184	99.7353	200.081
8.2	100.184	99.7357	200.08
8.2025	100.184	99.7362	200.079
8.205	100.185	99.7366	200.079
8.2075	100.185	99.7371	200.078
8.21	100.185	99.7376	200.077
8.2125	100.186	99.738	200.076
8.215	100.186	99.7385	200.076
8.2175	100.186	99.739	200.075
8.22	100.187	99.7394	200.074
8.2225	100.187	99.7399	200.073
8.225	100.187	99.7404	200.073
8.2275	100.187	99.7408	200.072
8.23	100.188	99.7413	200.071
8.2325	100.188	99.7418	200.07
8.235	100.188	99.7422	200.07
8.2375	100.188	99.7427	200.069
8.24	100.189	99.7432	200.068
8.2425	100.189	99.7436	200.067
8.245	100.189	99.7441	200.067
8.2475	100.189	99.7446	200.066
8.25	100.19	99.7451	200.065
8.2525	100.19	99.7455	200.065
8.255	100.19	99.746	200.064
8.2575	100.19	99.7465	200.063
8.26	100.191	99.7469	200.062
8.2625	100.191	99.7474	200.062
8.265	100.191	99.7479	200.061
8.2675	100.191	99.7484	200.06
8.27	100.192	99.7489	200.06
8.2725	100.192	99.7493	200.059
8.275	100.192	99.7498	200.058
8.2775	100.192	99.7503	200.058
8.28	100.192	99.7508	200.057
8.2825	100.193	99.7512	200.056
8.285	100.193	99.7517	200.055
8.2875	100.193	99.7522	200.055
8.29	100.193	99.7527	200.054
8.2925	100.193	99.7532	200.053
8.295	100.194	99.7537	200.053
8.2975	100.194	99.7541	200.052
8.3	100.194	99.7546	200.051
8.3025	100.194	99.7551	200.051
8.305	100.194	99.7556	200.05
8.3075	100.195	99.7561	200.049
8.31	100.195	99.7566	200.049
8.3125	100.195	99.7571	200.048
8.315	100.195	99.7575	200.047
8.3175	100.195	99.758	200.047
8.32	100.196	99.7585	200.046
8.3225	100.196	99.759	200.045
8.325	100.196	99.7595	200.045
8.3275	100.196	99.76	200.044
8.33	100.196	99.7605	200.043
8.3325	100.196	99.761	200.043
8.335	100.197	99.7614	200.042
8.3375	100.197	99.7619	200.041
8.34	100.197	99.7624	200.041
8.3425	100.197	99.7629	200.04
8.345	100.197	99.7634	200.039
8.3475	100.197	99.7639	200.039
8.35	100.197	99.7644	200.038
8.3525	100.198	99.7649	200.038
8.355	100.198	99.7654	200.037
8.3575	100.198	99.7659	200.036
8.36	100.198	99.7664	200.036
8.3625	100.198	99.7669	200.035
8.365	100.198	99.7674	200.034
8.3675	100.198	99.7678	200.034
8.37	100.199	99.7683	200.033
8.3725	100.199	99.7688	200.033
8.375	100.199	99.7693	200.032
8.3775	100.199	99.7698	200.031
8.38	100.199	99.7703	200.031
8.3825	100.199	99.7708	200.03
8.385	100.199	99.7713	200.029
8.3875	100.199	99.7718	200.029
8.39	100.199	99.7723	200.028
8.3925	100.2	99.7728	200.028
8.395	100.2	99.7733	200.027
8.3975	100.2	99.7738	200.026
8.4	100.2	99.7743	200.026
8.4025	100.2	99.7748	200.025
8.405	100.2	99.7753	200.025
8.4075	100.2	99.7758	200.024
8.41	100.2	99.7763	200.023
8.4125	100.2	99.7768	200.023
8.415	100.2	99.7773	200.022
8.4175	100.2	99.7778	200.022
8.42	100.201	99.7783	200.021
8.4225	100.201	99.7788	200.021
8.425	100.201	99.7793	200.02
8.4275	100.201	99.7798	200.019
8.43	100.201	99.7803	200.019
8.4325	100.201	99.7808	200.018
8.435	100.201	99.7813	200.018
8.4375	100.201	99.7818	200.017
8.44	100.201	99.7823	200.017
8.4425	100.201	99.7828	200.016
8.445	100.201	99.7833	200.015
8.4475	100.201	99.7838	200.015
8.45	100.201	99.7843	200.014
8.4525	100.201	99.7848	200.014
8.455	100.201	99.7853	200.013
8.4575	100.202	99.7858	200.013
8.46	100.202	99.7863	200.012
8.4625	100.202	99.7868	200.012
8.465	100.202	99.7873	200.011
8.4675	100.202	99.7878	200.01
8.47	100.202	99.7883	200.01
8.4725	100.202	99.7888	200.009
8.475	100.202	99.7893	200.009
8.4775	100.202	99.7899	200.008
8.48	100.202	99.7904	200.008
8.4825	100.202	99.7909	200.007
8.485	100.202	99.7914	200.007
8.4875	100.202	99.7919	200.006
8.49	100.202	99.7924	200.006
8.4925	100.202	99.7929	200.005
8.495	100.202	99.7934	200.005
8.4975	100.202	99.7939	200.004
8.5	100.202	99.7944	200.004
8.5025	100.202	99.7949	200.003
8.505	100.202	99.7954	200.003
8.5075	100.202	99.7959	200.002
8.51	100.202	99.7964	200.001
8.5125	100.202	99.7969	200.001
8.515	100.202	99.7974	200
8.5175	100.202	99.7979	200
8.52	100.202	99.7984	199.999
8.5225	100.202	99.7989	199.999
8.525	100.202	99.7994	199.998
8.5275	100.202	99.7999	199.998
8.53	100.202	99.8004	199.997
8.5325	100.202	99.8009	199.997
8.535	100.202	99.8014	199.996
8.5375	100.202	99.8019	199.996
8.54	100.202	99.8025	199.996
8.5425	100.202	99.803	199.995
8.545	100.202	99.8035	199.995
8.5475	100.202	99.804	199.994
8.55	100.202	99.8045	199.994
8.5525	100.202	99.805	199.993
8.555	100.202	99.8055	199.993
8.5575	100.202	99.806	199.992
8.56	100.202	99.8065	199.992
8.5625	100.202	99.807	199.991
8.565	100.202	99.8075	199.991
8.5675	100.202	99.808	199.99
8.57	100.202	99.8085	199.99
8.5725	100.202	99.809	199.989
8.575	100.202	99.8095	199.989
8.5775	100.202	99.81	199.988
8.58	100.202	99.8105	199.988
8.5825	100.202	99.811	199.987
8.585	100.201	99.8115	199.987
8.5875	100.201	99.812	199.987
8.59	100.201	99.8125	199.986
8.5925	100.201	99.813	199.986
8.595	100.201	99.8135	199.985
8.5975	100.201	99.814	199.985
8.6	100.201	99.8145	199.984
8.6025	100.201	99.815	199.984
8.605	100.201	99.8155	199.983
8.6075	100.201	99.816	199.983
8.61	100.201	99.8165	199.983
8.6125	100.201	99.817	199.982
8.615	100.201	99.8175	199.982
8.6175	100.201	99.818	199.981
8.62	100.201	99.8185	199.981
8.6225	100.201	99.819	199.98
8.625	100.2	99.8195	199.98
8.6275	100.2	99.82	199.98
8.63	100.2	99.8205	199.979
8.6325	100.2	99.821	199.979
8.635	100.2	99.8215	199.978
8.6375	100.2	99.822	199.978
8.64	100.2	99.8225	199.977
8.6425	100.2	99.823	199.977
8.645	100.2	99.8235	199.977
8.6475	100.2	99.824	199.976
8.65	100.2	99.8245	199.976
8.6525	100.2	99.825	199.975
8.655	100.199	99.8255	199.975
8.6575	100.199	99.826	199.975
8.66	100.199	99.8265	199.974
8.6625	100.199	99.827	199.974
8.665	100.199	99.8275	199.973
8.6675	100.199	99.828	199.973
8.67	100.199	99.8285	199.973
8.6725	100.199	99.829	199.972
8.675	100.199	99.8295	199.972
8.6775	100.199	99.83	199.971
8.68	100.198	99.8305	199.971
8.6825	100.198	99.831	199.971
8.685	100.198	99.8315	199.97
8.6875	100.198	99.832	199.97
8.69	100.198	99.8325	199.969
8.6925	100.198	99.833	199.969
8.695	100.198	99.8335	199.969
8.6975	100.198	99.834	199.968
8.7	100.198	99.8345	199.968
8.7025	100.197	99.8349	199.968
8.705	100.197	99.8354	199.967
8.7075	100.197	99.8359	199.967
8.71	100.197	99.8364	199.966
8.7125	100.197	99.8369	199.966
8.715	100.197	99.8374	199.966
8.7175	100.197	99.8379	199.965
8.72	100.197	99.8384	199.965
8.7225	100.196	99.8389	199.965
8.725	100.196	99.8394	199.964
8.7275	100.196	99.8399	199.964
8.73	100.196	99.8403	199.964
8.7325	100.196	99.8408	199.963
8.735	100.196	99.8413	199.963
8.7375	100.196	99.8418	199.963
8.74	100.195	99.8423	199.962
8.7425	100.195	99.8428	199.962
8.745	100.195	99.8433	199.962
8.7475	100.195	99.8438	199.961
8.75	100.195	99.8443	199.961
8.7525	100.195	99.8447	199.96
8.755	100.195	99.8452	199.96
8.7575	100.194	99.8457	199.96
8.76	100.194	99.8462	199.959
8.7625	100.194	99.8467	199.959
8.765	100.194	99.8472	199.959
8.7675	100.194	99.8476	199.958
8.77	100.194	99.8481	199.958
8.7725	100.194	99.8486	199.958
8.775	100.193	99.8491	199.958
8.7775	100.193	99.8496	199.957
8.78	100.193	99.8501	199.957
8.7825	100.193	99.8505	199.957
8.785	100.193	99.851	199.956
8.7875	100.193	99.8515	199.956
8.79	100.192	99.852	199.956
8.7925	100.192	99.8525	199.955
8.795	100.192	99.8529	199.955
8.7975	100.192	99.8534	199.955
8.8	100.192	99.8539	199.954
8.8025	100.192	99.8544	199.954
8.805	100.191	99.8549	199.954
8.8075	100.191	99.8553	199.953
8.81	100.191	99.8558	199.953
8.8125	100.191	99.8563	199.953
8.815	100.191	99.8568	199.953
8.8175	100.191	99.8572	199.952
8.82	100.19	99.8577	199.952
8.8225	100.19	99.8582	199.952
8.825	100.19	99.8587	199.951
8.8275	100.19	99.8591	199.951
8.83	100.19	99.8596	199.951
8.8325	100.189	99.8601	199.95
8.835	100.189	99.8606	199.95
8.8375	100.189	99.861	199.95
8.84	100.189	99.8615	199.95
8.8425	100.189	99.862	199.949
8.845	100.188	99.8624	199.949
8.8475	100.188	99.8629	199.949
8.85	100.188	99.8634	199.949
8.8525	100.188	99.8639	199.948
8.855	100.188	99.8643	199.948
8.8575	100.188	99.8648	199.948
8.86	100.187	99.8653	199.947
8.8625	100.187	99.8657	199.947
8.865	100.187	99.8662	199.947
8.8675	100.187	99.8667	199.947
8.87	100.187	99.8671	199.946
8.8725	100.186	99.8676	199.946
8.875	100.186	99.8681	199.946
8.8775	100.186	99.8685	199.946
8.88	100.186	99.869	199.945
8.8825	100.186	99.8695	199.945
8.885	100.185	99.8699	199.945
8.8875	100.185	99.8704	199.945
8.89	100.185	99.8708	199.944
8.8925	100.185	99.8713	199.944
8.895	100.184	99.8718	199.944
8.8975	100.184	99.8722	199.944
8.9	100.184	99.8727	199.943
8.9025	100.184	99.8731	199.943
8.905	100.184	99.8736	199.943
8.9075	100.183	99.8741	199.943
8.91	100.183	99.8745	199.942
8.9125	100.183	99.875	199.942
8.915	100.183	99.8754	199.942
8.9175	100.183	99.8759	199.942
8.92	100.182	99.8763	199.941
8.9225	100.182	99.8768	199.941
8.925	100.182	99.8773	199.941
8.9275	100.182	99.8777	199.941
8.93	100.181	99.8782	199.94
8.9325	100.181	99.8786	199.94
8.935	100.181	99.8791	199.94
8.9375	100.181	99.8795	199.94
8.94	100.181	99.88	199.939
8.9425	100.18	99.8804	199.939
8.945	100.18	99.8809	199.939
8.9475	100.18	99.8813	199.939
8.95	100.18	99.8818	199.939
8.9525	100.179	99.8822	199.938
8.955	100.179	99.8827	199.938
8.9575	100.179	99.8831	199.938
8.96	100.179	99.8836	199.938
8.9625	100.178	99.884	199.938
8.965	100.178	99.8844	199.937
8.9675	100.178	99.8849	199.937
8.97	100.178	99.8853	199.937
8.9725	100.178	99.8858	199.937
8.975	100.177	99.8862	199.936
8.9775	100.177	99.8867	199.936
8.98	100.177	99.8871	199.936
8.9825	100.177	99.8875	199.936
8.985	100.176	99.888	199.936
8.9875	100.176	99.8884	199.935
8.99	100.176	99.8889	199.935
8.9925	100.176	99.8893	199.935
8.995	100.175	99.8897	199.935
8.9975	100.175	99.8902	199.935
9	100.175	99.8906	199.934
9.0025	100.175	99.8911	199.934
9.005	100.174	99.8915	199.934
9.0075	100.174	99.8919	199.934
9.01	100.174	99.8924	199.934
9.0125	100.174	99.8928	199.934
9.015	100.173	99.8932	199.933
9.0175	100.173	99.8937	199.933
9.02	100.173	99.8941	199.933
9.0225	100.173	99.8945	199.933
9.025	100.172	99.895	199.933
9.0275	100.172	99.8954	199.932
9.03	100.172	99.8958	199.932
9.0325	100.172	99.8962	199.932
9.035	100.171	99.8967	199.932
9.0375	100.171	99.8971	199.932
9.04	100.171	99.8975	199.932
9.0425	100.171	99.898	199.931
9.045	100.17	99.8984	199.931
9.0475	100.17	99.8988	199.931
9.05	100.17	99.8992	199.931
9.0525	100.17	99.8997	199.931
9.055	100.169	99.9001	199.931
9.0575	100.169	99.9005	199.93
9.06	100.169	99.9009	199.93
9.0625	100.169	99.9013	199.93
9.065	100.168	99.9018	199.93
9.0675	100.168	99.9022	199.93
9.07	100.168	99.9026	199.93
9.0725	100.167	99.903	199.929
9.075	100.167	99.9034	199.929
9.0775	100.167	99.9039	199.929
9.08	100.167	99.9043	199.929
9.0825	100.166	99.9047	199.929
9.085	100.166	99.9051	199.929
9.0875	100.166	99.9055	199.929
9.09	100.166	99.9059	199.928
9.0925	100.165	99.9063	199.928
9.095	100.165	99.9068	199.928
9.0975	100.165	99.9072	199.928
9.1	100.165	99.9076	199.928
9.1025	100.164	99.908	199.928
9.105	100.164	99.9084	199.928
9.1075	100.164	99.9088	199.927
9.11	100.163	99.9092	199.927
9.1125	100.163	99.9096	199.927
9.115	100.163	99.91	199.927
9.1175	100.163	99.9104	199.927
9.12	100.162	99.9108	199.927
9.1225	100.162	99.9113	199.927
9.125	100.162	99.9117	199.927
9.1275	100.162	99.9121	199.926
9.13	100.161	99.9125	199.926
9.1325	100.161	99.9129	199.926
9.135	100.161	99.9133	199.926
9.1375	100.16	99.9137	199.926
9.14	100.16	99.9141	199.926
9.1425	100.16	99.9145	199.926
9.145	100.16	99.9149	199.926
9.1475	100.159	99.9153	199.925
9.15	100.159	99.9157	199.925
9.1525	100.159	99.9161	199.925
9.155	100.158	99.9165	199.925
9.1575	100.158	99.9169	199.925
9.16	100.158	99.9173	199.925
9.1625	100.158	99.9176	199.925
9.165	100.157	99.918	199.925
9.1675	100.157	99.9184	199.924
9.17	100.157	99.9188	199.924
9.1725	100.157	99.9192	199.924
9.175	100.156	99.9196	199.924
9.1775	100.156	99.92	199.924
9.18	100.156	99.9204	199.924
9.1825	100.155	99.9208	199.924
9.185	100.155	99.9212	199.924
9.1875	100.155	99.9215	199.924
9.19	100.155	99.9219	199.924
9.1925	100.154	99.9223	199.923
9.195	100.154	99.9227	199.923
9.1975	100.154	99.9231	199.923
9.2	100.153	99.9235	199.923
9.2025	100.153	99.9239	199.923
9.205	100.153	99.9242	199.923
9.2075	100.153	99.9246	199.923
9.21	100.152	99.925	199.923
9.2125	100.152	99.9254	199.923
9.215	100.152	99.9258	199.923
9.2175	100.151	99.9261	199.923
9.22	100.151	99.9265	199.922
9.2225	100.151	99.9269	199.922
9.225	100.15	99.9273	199.922
9.2275	100.15	99.9276	199.922
9.23	100.15	99.928	199.922
9.2325	100.15	99.9284	199.922
9.235	100.149	99.9288	199.922
9.2375	100.149	99.9291	199.922
9.24	100.149	99.9295	199.922
9.2425	100.148	99.9299	199.922
9.245	100.148	99.9303	199.922
9.2475	100.148	99.9306	199.922
9.25	100.148	99.931	199.921
9.2525	100.147	99.9314	199.921
9.255	100.147	99.9317	199.921
9.2575	100.147	99.9321	199.921
9.26	100.146	99.9325	199.921
9.2625	100.146	99.9328	199.921
9.265	100.146	99.9332	199.921
9.2675	100.145	99.9336	199.921
9.27	100.145	99.9339	199.921
9.2725	100.145	99.9343	199.921
9.275	100.145	99.9346	199.921
9.2775	100.144	99.935	199.921
9.28	100.144	99.9354	199.921
9.2825	100.144	99.9357	199.921
9.285	100.143	99.9361	199.921
9.2875	100.143	99.9364	199.92
9.29	100.143	99.9368	199.92
9.2925	100.143	99.9371	199.92
9.295	100.142	99.9375	199.92
9.2975	100.142	99.9379	199.92
9.3	100.142	99.9382	199.92
9.3025	100.141	99.9386	199.92
9.305	100.141	99.9389	199.92
9.3075	100.141	99.9393	199.92
9.31	100.14	99.9396	199.92
9.3125	100.14	99.94	199.92
9.315	100.14	99.9403	199.92
9.3175	100.14	99.9407	199.92
9.32	100.139	99.941	199.92
9.3225	100.139	99.9414	199.92
9.325	100.139	99.9417	199.92
9.3275	100.138	99.9421	199.92
9.33	100.138	99.9424	199.92
9.3325	100.138	99.9428	199.92
9.335	100.137	99.9431	199.92
9.3375	100.137	99.9434	199.919
9.34	100.137	99.9438	199.919
9.3425	100.136	99.9441	199.919
9.345	100.136	99.9445	199.919
9.3475	100.136	99.9448	199.919
9.35	100.136	99.9451	199.919
9.3525	100.135	99.9455	199.919
9.355	100.135	99.9458	199.919
9.3575	100.135	99.9462	199.919
9.36	100.134	99.9465	199.919
9.3625	100.134	99.9468	199.919
9.365	100.134	99.9472	199.919
9.3675	100.133	99.9475	199.919
9.37	100.133	99.9478	199.919
9.3725	100.133	99.9482	199.919
9.375	100.133	99.9485	199.919
9.3775	100.132	99.9488	199.919
9.38	100.132	99.9492	199.919
9.3825	100.132	99.9495	199.919
9.385	100.131	99.9498	199.919
9.3875	100.131	99.9501	199.919
9.39	100.131	99.9505	199.919
9.3925	100.13	99.9508	199.919
9.395	100.13	99.9511	199.919
9.3975	100.13	99.9514	199.919
9.4	100.13	99.9518	199.919
9.4025	100.129	99.9521	199.919
9.405	100.129	99.9524	199.919
9.4075	100.129	99.9527	199.919
9.41	100.128	99.9531	199.919
9.4125	100.128	99.9534	199.919
9.415	100.128	99.9537	199.919
9.4175	100.127	99.954	199.919
9.42	100.127	99.9543	199.919
9.4225	100.127	99.9546	199.919
9.425	100.126	99.955	199.919
9.4275	100.126	99.9553	199.919
9.43	100.126	99.9556	199.919
9.4325	100.126	99.9559	199.919
9.435	100.125	99.9562	199.919
9.4375	100.125	99.9565	199.919
9.44	100.125	99.9568	199.919
9.4425	100.124	99.9572	199.919
9.445	100.124	99.9575	199.919
9.4475	100.124	99.9578	199.919
9.45	100.123	99.9581	199.919
9.4525	100.123	99.9584	199.918
9.455	100.123	99.9587	199.918
9.4575	100.122	99.959	199.918
9.46	100.122	99.9593	199.918
9.4625	100.122	99.9596	199.918
9.465	100.122	99.9599	199.918
9.4675	100.121	99.9602	199.918
9.47	100.121	99.9605	199.919
9.4725	100.121	99.9608	199.919
9.475	100.12	99.9611	199.919
9.4775	100.12	99.9614	199.919
9.48	100.12	99.9617	199.919
9.4825	100.119	99.962	199.919
9.485	100.119	99.9623	199.919
9.4875	100.119	99.9626	199.919
9.49	100.119	99.9629	199.919
9.4925	100.118	99.9632	199.919
9.495	100.118	99.9635	199.919
9.4975	100.118	99.9638	199.919
9.5	100.117	99.9641	199.919
9.5025	100.117	99.9644	199.919
9.505	100.117	99.9647	199.919
9.5075	100.116	99.965	199.919
9.51	100.116	99.9653	199.919
9.5125	100.116	99.9656	199.919
9.515	100.115	99.9658	199.919
9.5175	100.115	99.9661	199.919
9.52	100.115	99.9664	199.919
9.5225	100.115	99.9667	199.919
9.525	100.114	99.967	199.919
9.5275	100.114	99.9673	199.919
9.53	100.114	99.9676	199.919
9.5325	100.113	99.9678	199.919
9.535	100.113	99.9681	199.919
9.5375	100.113	99.9684	199.919
9.54	100.112	99.9687	199.919
9.5425	100.112	99.969	199.919
9.545	100.112	99.9693	199.919
9.5475	100.112	99.9695	199.919
9.55	100.111	99.9698	199.919
9.5525	100.111	99.9701	199.919
9.555	100.111	99.9704	199.919
9.5575	100.11	99.9706	199.919
9.56	100.11	99.9709	199.919
9.5625	100.11	99.9712	199.919
9.565	100.109	99.9715	199.919
9.5675	100.109	99.9717	199.919
9.57	100.109	99.972	199.919
9.5725	100.108	99.9723	199.919
9.575	100.108	99.9726	199.919
9.5775	100.108	99.9728	199.919
9.58	100.108	99.9731	199.919
9.5825	100.107	99.9734	199.919
9.585	100.107	99.9736	199.919
9.5875	100.107	99.9739	199.919
9.59	100.106	99.9742	199.919
9.5925	100.106	99.9744	199.92
9.595	100.106	99.9747	199.92
9.5975	100.105	99.975	199.92
9.6	100.105	99.9752	199.92
9.6025	100.105	99.9755	199.92
9.605	100.105	99.9757	199.92
9.6075	100.104	99.976	199.92
9.61	100.104	99.9763	199.92
9.6125	100.104	99.9765	199.92
9.615	100.103	99.9768	199.92
9.6175	100.103	99.977	199.92
9.62	100.103	99.9773	199.92
9.6225	100.102	99.9776	199.92
9.625	100.102	99.9778	199.92
9.6275	100.102	99.9781	199.92
9.63	100.102	99.9783	199.92
9.6325	100.101	99.9786	199.92
9.635	100.101	99.9788	199.92
9.6375	100.101	99.9791	199.92
9.64	100.1	99.9793	199.92
9.6425	100.1	99.9796	199.92
9.645	100.1	99.9798	199.92
9.6475	100.099	99.9801	199.92
9.65	100.099	99.9803	199.921
9.6525	100.099	99.9806	199.921
9.655	100.099	99.9808	199.921
9.6575	100.098	99.9811	199.921
9.66	100.098	99.9813	199.921
9.6625	100.098	99.9816	199.921
9.665	100.097	99.9818	199.921
9.6675	100.097	99.982	199.921
9.67	100.097	99.9823	199.921
9.6725	100.096	99.9825	199.921
9.675	100.096	99.9828	199.921
9.6775	100.096	99.983	199.921
9.68	100.096	99.9832	199.921
9.6825	100.095	99.9835	199.921
9.685	100.095	99.9837	199.921
9.6875	100.095	99.984	199.921
9.69	100.094	99.9842	199.921
9.6925	100.094	99.9844	199.921
9.695	100.094	99.9847	199.921
9.6975	100.094	99.9849	199.922
9.7	100.093	99.9851	199.922
9.7025	100.093	99.9854	199.922
9.705	100.093	99.9856	199.922
9.7075	100.092	99.9858	199.922
9.71	100.092	99.9861	199.922
9.7125	100.092	99.9863	199.922
9.715	100.091	99.9865	199.922
9.7175	100.091	99.9867	199.922
9.72	100.091	99.987	199.922
9.7225	100.091	99.9872	199.922
9.725	100.09	99.9874	199.922
9.7275	100.09	99.9877	199.922
9.73	100.09	99.9879	199.922
9.7325	100.089	99.9881	199.922
9.735	100.089	99.9883	199.923
9.7375	100.089	99.9885	199.923
9.74	100.089	99.9888	199.923
9.7425	100.088	99.989	199.923
9.745	100.088	99.9892	199.923
9.7475	100.088	99.9894	199.923
9.75	100.087	99.9897	199.923
9.7525	100.087	99.9899	199.923
9.755	100.087	99.9901	199.923
9.7575	100.087	99.9903	199.923
9.76	100.086	99.9905	199.923
9.7625	100.086	99.9907	199.923
9.765	100.086	99.9909	199.923
9.7675	100.085	99.9912	199.923
9.77	100.085	99.9914	199.924
9.7725	100.085	99.9916	199.924
9.775	100.085	99.9918	199.924
9.7775	100.084	99.992	199.924
9.78	100.084	99.9922	199.924
9.7825	100.084	99.9924	199.924
9.785	100.083	99.9926	199.924
9.7875	100.083	99.9928	199.924
9.79	100.083	99.9931	199.924
9.7925	100.083	99.9933	199.924
9.795	100.082	99.9935	199.924
9.7975	100.082	99.9937	199.924
9.8	100.082	99.9939	199.924
9.8025	100.081	99.9941	199.925
9.805	100.081	99.9943	199.925
9.8075	100.081	99.9945	199.925
9.81	100.081	99.9947	199.925
9.8125	100.08	99.9949	199.925
9.815	100.08	99.9951	199.925
9.8175	100.08	99.9953	199.925
9.82	100.079	99.9955	199.925
9.8225	100.079	99.9957	199.925
9.825	100.079	99.9959	199.925
9.8275	100.079	99.9961	199.925
9.83	100.078	99.9963	199.925
9.8325	100.078	99.9965	199.925
9.835	100.078	99.9967	199.926
9.8375	100.077	99.9969	199.926
9.84	100.077	99.9971	199.926
9.8425	100.077	99.9972	199.926
9.845	100.077	99.9974	199.926
9.8475	100.076	99.9976	199.926
9.85	100.076	99.9978	199.926
9.8525	100.076	99.998	199.926
9.855	100.076	99.9982	199.926
9.8575	100.075	99.9984	199.926
9.86	100.075	99.9986	199.926
9.8625	100.075	99.9988	199.927
9.865	100.074	99.999	199.927
9.8675	100.074	99.9991	199.927
9.87	100.074	99.9993	199.927
9.8725	100.074	99.9995	199.927
9.875	100.073	99.9997	199.927
9.8775	100.073	99.9999	199.927
9.88	100.073	100	199.927
9.8825	100.073	100	199.927
9.885	100.072	100	199.927
9.8875	100.072	100.001	199.927
9.89	100.072	100.001	199.928
9.8925	100.071	100.001	199.928
9.895	100.071	100.001	199.928
9.8975	100.071	100.001	199.928
9.9	100.071	100.001	199.928
9.9025	100.07	100.002	199.928
9.905	100.07	100.002	199.928
9.9075	100.07	100.002	199.928
9.91	100.07	100.002	199.928
9.9125	100.069	100.002	199.928
9.915	100.069	100.003	199.928
9.9175	100.069	100.003	199.929
9.92	100.068	100.003	199.929
9.9225	100.068	100.003	199.929
9.925	100.068	100.003	199.929
9.9275	100.068	100.003	199.929
9.93	100.067	100.004	199.929
9.9325	100.067	100.004	199.929
9.935	100.067	100.004	199.929
9.9375	100.067	100.004	199.929
9.94	100.066	100.004	199.929
9.9425	100.066	100.004	199.93
9.945	100.066	100.005	199.93
9.9475	100.066	100.005	199.93
9.95	100.065	100.005	199.93
9.9525	100.065	100.005	199.93
9.955	100.065	100.005	199.93
9.9575	100.064	100.005	199.93
9.96	100.064	100.006	199.93
9.9625	100.064	100.006	199.93
9.965	100.064	100.006	199.93
9.9675	100.063	100.006	199.931
9.97	100.063	100.006	199.931
9.9725	100.063	100.006	199.931
9.975	100.063	100.006	199.931
9.9775	100.062	100.007	199.931
9.98	100.062	100.007	199.931
9.9825	100.062	100.007	199.931
9.985	100.062	100.007	199.931
9.9875	100.061	100.007	199.931
9.99	100.061	100.007	199.931
9.9925	100.061	100.008	199.932
9.995	100.061	100.008	199.932
9.9975	100.06	100.008	199.932
10	100.06	100.008	199.932
10.0025	100.06	100.008	199.932
10.005	100.06	100.008	199.932
10.0075	100.059	100.008	199.932
10.01	100.059	100.009	199.932
10.0125	100.059	100.009	199.932
10.015	100.059	100.009	199.933
10.0175	100.058	100.009	199.933
10.02	100.058	100.009	199.933
10.0225	100.058	100.009	199.933
10.025	100.058	100.009	199.933
10.0275	100.057	100.01	199.933
10.03	100.057	100.01	199.933
10.0325	100.057	100.01	199.933
10.035	100.057	100.01	199.933
10.0375	100.056	100.01	199.933
10.04	100.056	100.01	199.934
10.0425	100.056	100.01	199.934
10.045	100.056	100.011	199.934
10.0475	100.055	100.011	199.934
10.05	100.055	100.011	199.934
10.0525	100.055	100.011	199.934
10.055	100.055	100.011	199.934
10.0575	100.054	100.011	199.934
10.06	100.054	100.011	199.934
10.0625	100.054	100.012	199.935
10.065	100.054	100.012	199.935
10.0675	100.053	100.012	199.935
10.07	100.053	100.012	199.935
10.0725	100.053	100.012	199.935
10.075	100.053	100.012	199.935
10.0775	100.052	100.012	199.935
10.08	100.052	100.013	199.935
10.0825	100.052	100.013	199.935
10.085	100.052	100.013	199.936
10.0875	100.051	100.013	199.936
10.09	100.051	100.013	199.936
10.0925	100.051	100.013	199.936
10.095	100.051	100.013	199.936
10.0975	100.05	100.013	199.936
10.1	100.05	100.014	199.936
10.1025	100.05	100.014	199.936
10.105	100.05	100.014	199.937
10.1075	100.049	100.014	199.937
10.11	100.049	100.014	199.937
10.1125	100.049	100.014	199.937
10.115	100.049	100.014	199.937
10.1175	100.049	100.014	199.937
10.12	100.048	100.015	199.937
10.1225	100.048	100.015	199.937
10.125	100.048	100.015	199.937
10.1275	100.048	100.015	199.938
10.13	100.047	100.015	199.938
10.1325	100.047	100.015	199.938
10.135	100.047	100.015	199.938
10.1375	100.047	100.015	199.938
10.14	100.046	100.015	199.938
10.1425	100.046	100.016	199.938
10.145	100.046	100.016	199.938
10.1475	100.046	100.016	199.938
10.15	100.046	100.016	199.939
10.1525	100.045	100.016	199.939
10.155	100.045	100.016	199.939
10.1575	100.045	100.016	199.939
10.16	100.045	100.016	199.939
10.1625	100.044	100.016	199.939
10.165	100.044	100.017	199.939
10.1675	100.044	100.017	199.939
10.17	100.044	100.017	199.94
10.1725	100.043	100.017	199.94
10.175	100.043	100.017	199.94
10.1775	100.043	100.017	199.94
10.18	100.043	100.017	199.94
10.1825	100.043	100.017	199.94
10.185	100.042	100.017	199.94
10.1875	100.042	100.018	199.94
10.19	100.042	100.018	199.94
10.1925	100.042	100.018	199.941
10.195	100.041	100.018	199.941
10.1975	100.041	100.018	199.941
10.2	100.041	100.018	199.941
10.2025	100.041	100.018	199.941
10.205	100.041	100.018	199.941
10.2075	100.04	100.018	199.941
10.21	100.04	100.018	199.941
10.2125	100.04	100.019	199.942
10.215	100.04	100.019	199.942
10.2175	100.039	100.019	199.942
10.22	100.039	100.019	199.942
10.2225	100.039	100.019	199.942
10.225	100.039	100.019	199.942
10.2275	100.039	100.019	199.942
10.23	100.038	100.019	199.942
10.2325	100.038	100.019	199.942
10.235	100.038	100.019	199.943
10.2375	100.038	100.02	199.943
10.24	100.037	100.02	199.943
10.2425	100.037	100.02	199.943
10.245	100.037	100.02	199.943
10.2475	100.037	100.02	199.943
10.25	100.037	100.02	199.943
10.2525	100.036	100.02	199.943
10.255	100.036	100.02	199.944
10.2575	100.036	100.02	199.944
10.26	100.036	100.02	199.944
10.2625	100.036	100.02	199.944
10.265	100.035	100.021	199.944
10.2675	100.035	100.021	199.944
10.27	100.035	100.021	199.944
10.2725	100.035	100.021	199.944
10.275	100.035	100.021	199.945
10.2775	100.034	100.021	199.945
10.28	100.034	100.021	199.945
10.2825	100.034	100.021	199.945
10.285	100.034	100.021	199.945
10.2875	100.034	100.021	199.945
10.29	100.033	100.021	199.945
10.2925	100.033	100.022	199.945
10.295	100.033	100.022	199.946
10.2975	100.033	100.022	199.946
10.3	100.032	100.022	199.946
10.3025	100.032	100.022	199.946
10.305	100.032	100.022	199.946
10.3075	100.032	100.022	199.946
10.31	100.032	100.022	199.946
10.3125	100.031	100.022	199.946
10.315	100.031	100.022	199.947
10.3175	100.031	100.022	199.947
10.32	100.031	100.022	199.947
10.3225	100.031	100.022	199.947
10.325	100.03	100.023	199.947
10.3275	100.03	100.023	199.947
10.33	100.03	100.023	199.947
10.3325	100.03	100.023	199.947
10.335	100.03	100.023	199.947
10.3375	100.029	100.023	199.948
10.34	100.029	100.023	199.948
10.3425	100.029	100.023	199.948
10.345	100.029	100.023	199.948
10.3475	100.029	100.023	199.948
10.35	100.029	100.023	199.948
10.3525	100.028	100.023	199.948
10.355	100.028	100.023	199.948
10.3575	100.028	100.023	199.949
10.36	100.028	100.024	199.949
10.3625	100.028	100.024	199.949
10.365	100.027	100.024	199.949
10.3675	100.027	100.024	199.949
10.37	100.027	100.024	199.949
10.3725	100.027	100.024	199.949
10.375	100.027	100.024	199.949
10.3775	100.026	100.024	199.95
10.38	100.026	100.024	199.95
10.3825	100.026	100.024	199.95
10.385	100.026	100.024	199.95
10.3875	100.026	100.024	199.95
10.39	100.025	100.024	199.95
10.3925	100.025	100.024	199.95
10.395	100.025	100.024	199.95
10.3975	100.025	100.025	199.951
10.4	100.025	100.025	199.951
10.4025	100.025	100.025	199.951
10.405	100.024	100.025	199.951
10.4075	100.024	100.025	199.951
10.41	100.024	100.025	199.951
10.4125	100.024	100.025	199.951
10.415	100.024	100.025	199.951
10.4175	100.023	100.025	199.952
10.42	100.023	100.025	199.952
10.4225	100.023	100.025	199.952
10.425	100.023	100.025	199.952
10.4275	100.023	100.025	199.952
10.43	100.023	100.025	199.952
10.4325	100.022	100.025	199.952
10.435	100.022	100.025	199.952
10.4375	100.022	100.025	199.953
10.44	100.022	100.026	199.953
10.4425	100.022	100.026	199.953
10.445	100.021	100.026	199.953
10.4475	100.021	100.026	199.953
10.45	100.021	100.026	199.953
10.4525	100.021	100.026	199.953
10.455	100.021	100.026	199.953
10.4575	100.021	100.026	199.954
10.46	100.02	100.026	199.954
10.4625	100.02	100.026	199.954
10.465	100.02	100.026	199.954
10.4675	100.02	100.026	199.954
10.47	100.02	100.026	199.954
10.4725	100.02	100.026	199.954
10.475	100.019	100.026	199.954
10.4775	100.019	100.026	199.954
10.48	100.019	100.026	199.955
10.4825	100.019	100.026	199.955
10.485	100.019	100.026	199.955
10.4875	100.019	100.026	199.955
10.49	100.018	100.027	199.955
10.4925	100.018	100.027	199.955
10.495	100.018	100.027	199.955
10.4975	100.018	100.027	199.955
10.5	100.018	100.027	199.956
10.5025	100.018	100.027	199.956
10.505	100.017	100.027	199.956
10.5075	100.017	100.027	199.956
10.51	100.017	100.027	199.956
10.5125	100.017	100.027	199.956
10.515	100.017	100.027	199.956
10.5175	100.017	100.027	199.956
10.52	100.016	100.027	199.957
10.5225	100.016	100.027	199.957
10.525	100.016	100.027	199.957
10.5275	100.016	100.027	199.957
10.53	100.016	100.027	199.957
10.5325	100.016	100.027	199.957
10.535	100.015	100.027	199.957
10.5375	100.015	100.027	199.957
10.54	100.015	100.027	199.958
10.5425	100.015	100.027	199.958
10.545	100.015	100.027	199.958
10.5475	100.015	100.027	199.958
10.55	100.014	100.028	199.958
10.5525	100.014	100.028	199.958
10.555	100.014	100.028	199.958
10.5575	100.014	100.028	199.958
10.56	100.014	100.028	199.959
10.5625	100.014	100.028	199.959
10.565	100.014	100.028	199.959
10.5675	100.013	100.028	199.959
10.57	100.013	100.028	199.959
10.5725	100.013	100.028	199.959
10.575	100.013	100.028	199.959
10.5775	100.013	100.028	199.959
10.58	100.013	100.028	199.959
10.5825	100.012	100.028	199.96
10.585	100.012	100.028	199.96
10.5875	100.012	100.028	199.96
10.59	100.012	100.028	199.96
10.5925	100.012	100.028	199.96
10.595	100.012	100.028	199.96
10.5975	100.012	100.028	199.96
10.6	100.011	100.028	199.96
10.6025	100.011	100.028	199.961
10.605	100.011	100.028	199.961
10.6075	100.011	100.028	199.961
10.61	100.011	100.028	199.961
10.6125	100.011	100.028	199.961
10.615	100.011	100.028	199.961
10.6175	100.01	100.028	199.961
10.62	100.01	100.028	199.961
10.6225	100.01	100.028	199.962
10.625	100.01	100.028	199.962
10.6275	100.01	100.028	199.962
10.63	100.01	100.028	199.962
10.6325	100.009	100.029	199.962
10.635	100.009	100.029	199.962
10.6375	100.009	100.029	199.962
10.64	100.009	100.029	199.962
10.6425	100.009	100.029	199.962
10.645	100.009	100.029	199.963
10.6475	100.009	100.029	199.963
10.65	100.009	100.029	199.963
10.6525	100.008	100.029	199.963
10.655	100.008	100.029	199.963
10.6575	100.008	100.029	199.963
10.66	100.008	100.029	199.963
10.6625	100.008	100.029	199.963
10.665	100.008	100.029	199.964
10.6675	100.008	100.029	199.964
10.67	100.007	100.029	199.964
10.6725	100.007	100.029	199.964
10.675	100.007	100.029	199.964
10.6775	100.007	100.029	199.964
10.68	100.007	100.029	199.964
10.6825	100.007	100.029	199.964
10.685	100.007	100.029	199.964
10.6875	100.006	100.029	199.965
10.69	100.006	100.029	199.965
10.6925	100.006	100.029	199.965
10.695	100.006	100.029	199.965
10.6975	100.006	100.029	199.965
10.7	100.006	100.029	199.965
10.7025	100.006	100.029	199.965
10.705	100.006	100.029	199.965
10.7075	100.005	100.029	199.966
10.71	100.005	100.029	199.966
10.7125	100.005	100.029	199.966
10.715	100.005	100.029	199.966
10.7175	100.005	100.029	199.966
10.72	100.005	100.029	199.966
10.7225	100.005	100.029	199.966
10.725	100.005	100.029	199.966
10.7275	100.004	100.029	199.966
10.73	100.004	100.029	199.967
10.7325	100.004	100.029	199.967
10.735	100.004	100.029	199.967
10.7375	100.004	100.029	199.967
10.74	100.004	100.029	199.967
10.7425	100.004	100.029	199.967
10.745	100.004	100.029	199.967
10.7475	100.003	100.029	199.967
10.75	100.003	100.029	199.967
10.7525	100.003	100.029	199.968
10.755	100.003	100.029	199.968
10.7575	100.003	100.029	199.968
10.76	100.003	100.029	199.968
10.7625	100.003	100.029	199.968
10.765	100.003	100.029	199.968
10.7675	100.002	100.029	199.968
10.77	100.002	100.029	199.968
10.7725	100.002	100.029	199.968
10.775	100.002	100.029	199.969
10.7775	100.002	100.029	199.969
10.78	100.002	100.029	199.969
10.7825	100.002	100.029	199.969
10.785	100.002	100.029	199.969
10.7875	100.002	100.029	199.969
10.79	100.001	100.029	199.969
10.7925	100.001	100.029	199.969
10.795	100.001	100.029	199.969
10.7975	100.001	100.029	199.97
10.8	100.001	100.029	199.97
10.8025	100.001	100.029	199.97
10.805	100.001	100.029	199.97
10.8075	100.001	100.029	199.97
10.81	100	100.029	199.97
10.8125	100	100.029	199.97
10.815	100	100.029	199.97
10.8175	100	100.029	199.97
10.82	100	100.029	199.971
10.8225	99.9999	100.029	199.971
10.825	99.9998	100.029	199.971
10.8275	99.9997	100.029	199.971
10.83	99.9996	100.029	199.971
10.8325	99.9995	100.029	199.971
10.835	99.9994	100.029	199.971
10.8375	99.9993	100.029	199.971
10.84	99.9992	100.029	199.971
10.8425	99.9991	100.029	199.972
10.845	99.999	100.029	199.972
10.8475	99.9988	100.029	199.972
10.85	99.9987	100.029	199.972
10.8525	99.9986	100.029	199.972
10.855	99.9985	100.029	199.972
10.8575	99.9984	100.029	199.972
10.86	99.9983	100.029	199.972
10.8625	99.9982	100.029	199.972
10.865	99.9981	100.029	199.973
10.8675	99.998	100.029	199.973
10.87	99.9979	100.029	199.973
10.8725	99.9978	100.029	199.973
10.875	99.9977	100.029	199.973
10.8775	99.9976	100.029	199.973
10.88	99.9975	100.029	199.973
10.8825	99.9974	100.029	199.973
10.885	99.9973	100.029	199.973
10.8875	99.9972	100.029	199.974
10.89	99.9971	100.029	199.974
10.8925	99.997	100.029	199.974
10.895	99.9969	100.029	199.974
10.8975	99.9968	100.029	199.974
10.9	99.9967	100.029	199.974
10.9025	99.9966	100.029	199.974
10.905	99.9965	100.029	199.974
10.9075	99.9964	100.029	199.974
10.91	99.9963	100.029	199.974
10.9125	99.9962	100.029	199.975
10.915	99.9961	100.029	199.975
10.9175	99.996	100.029	199.975
10.92	99.996	100.029	199.975
10.9225	99.9959	100.029	199.975
10.925	99.9958	100.029	199.975
10.9275	99.9957	100.029	199.975
10.93	99.9956	100.029	199.975
10.9325	99.9955	100.029	199.975
10.935	99.9954	100.029	199.976
10.9375	99.9953	100.029	199.976
10.94	99.9952	100.029	199.976
10.9425	99.9951	100.029	199.976
10.945	99.995	100.029	199.976
10.9475	99.9949	100.029	199.976
10.95	99.9948	100.029	199.976
10.9525	99.9948	100.029	199.976
10.955	99.9947	100.029	199.976
10.9575	99.9946	100.029	199.976
10.96	99.9945	100.029	199.977
10.9625	99.9944	100.029	199.977
10.965	99.9943	100.029	199.977
10.9675	99.9942	100.029	199.977
10.97	99.9941	100.029	199.977
10.9725	99.9941	100.029	199.977
10.975	99.994	100.029	199.977
10.9775	99.9939	100.029	199.977
10.98	99.9938	100.029	199.977
10.9825	99.9937	100.029	199.977
10.985	99.9936	100.029	199.978
10.9875	99.9935	100.029	199.978
10.99	99.9935	100.029	199.978
10.9925	99.9934	100.029	199.978
10.995	99.9933	100.029	199.978
10.9975	99.9932	100.029	199.978
11	99.9931	100.029	199.978
11.0025	99.9931	100.029	199.978
11.005	99.993	100.029	199.978
11.0075	99.9929	100.029	199.978
11.01	99.9928	100.029	199.979
11.0125	99.9927	100.029	199.979
11.015	99.9927	100.029	199.979
11.0175	99.9926	100.029	199.979
11.02	99.9925	100.029	199.979
11.0225	99.9924	100.029	199.979
11.025	99.9923	100.029	199.979
11.0275	99.9923	100.029	199.979
11.03	99.9922	100.028	199.979
11.0325	99.9921	100.028	199.979
11.035	99.992	100.028	199.98
11.0375	99.9919	100.028	199.98
11.04	99.9919	100.028	199.98
11.0425	99.9918	100.028	199.98
11.045	99.9917	100.028	199.98
11.0475	99.9916	100.028	199.98
11.05	99.9916	100.028	199.98
11.0525	99.9915	100.028	199.98
11.055	99.9914	100.028	199.98
11.0575	99.9913	100.028	199.98
11.06	99.9913	100.028	199.98
11.0625	99.9912	100.028	199.981
11.065	99.9911	100.028	199.981
11.0675	99.9911	100.028	199.981
11.07	99.991	100.028	199.981
11.0725	99.9909	100.028	199.981
11.075	99.9908	100.028	199.981
11.0775	99.9908	100.028	199.981
11.08	99.9907	100.028	199.981
11.0825	99.9906	100.028	199.981
11.085	99.9906	100.028	199.981
11.0875	99.9905	100.028	199.982
11.09	99.9904	100.028	199.982
11.0925	99.9904	100.028	199.982
11.095	99.9903	100.028	199.982
11.0975	99.9902	100.028	199.982
11.1	99.9901	100.028	199.982
11.1025	99.9901	100.028	199.982
11.105	99.99	100.028	199.982
11.1075	99.9899	100.028	199.982
11.11	99.9899	100.028	199.982
11.1125	99.9898	100.028	199.982
11.115	99.9897	100.028	199.983
11.1175	99.9897	100.028	199.983
11.12	99.9896	100.028	199.983
11.1225	99.9896	100.028	199.983
11.125	99.9895	100.028	199.983
11.1275	99.9894	100.028	199.983
11.13	99.9894	100.028	199.983
11.1325	99.9893	100.028	199.983
11.135	99.9892	100.028	199.983
11.1375	99.9892	100.027	199.983
11.14	99.9891	100.027	199.983
11.1425	99.989	100.027	199.984
11.145	99.989	100.027	199.984
11.1475	99.9889	100.027	199.984
11.15	99.9889	100.027	199.984
11.1525	99.9888	100.027	199.984
11.155	99.9887	100.027	199.984
11.1575	99.9887	100.027	199.984
11.16	99.9886	100.027	199.984
11.1625	99.9886	100.027	199.984
11.165	99.9885	100.027	199.984
11.1675	99.9884	100.027	199.984
11.17	99.9884	100.027	199.984
11.1725	99.9883	100.027	199.985
11.175	99.9883	100.027	199.985
11.1775	99.9882	100.027	199.985
11.18	99.9882	100.027	199.985
11.1825	99.9881	100.027	199.985
11.185	99.988	100.027	199.985
11.1875	99.988	100.027	199.985
11.19	99.9879	100.027	199.985
11.1925	99.9879	100.027	199.985
11.195	99.9878	100.027	199.985
11.1975	99.9878	100.027	199.985
11.2	99.9877	100.027	199.986
11.2025	99.9877	100.027	199.986
11.205	99.9876	100.027	199.986
11.2075	99.9876	100.027	199.986
11.21	99.9875	100.027	199.986
11.2125	99.9874	100.027	199.986
11.215	99.9874	100.027	199.986
11.2175	99.9873	100.027	199.986
11.22	99.9873	100.027	199.986
11.2225	99.9872	100.026	199.986
11.225	99.9872	100.026	199.986
11.2275	99.9871	100.026	199.986
11.23	99.9871	100.026	199.987
11.2325	99.987	100.026	199.987
11.235	99.987	100.026	199.987
11.2375	99.9869	100.026	199.987
11.24	99.9869	100.026	199.987
11.2425	99.9868	100.026	199.987
11.245	99.9868	100.026	199.987
11.2475	99.9867	100.026	199.987
11.25	99.9867	100.026	199.987
11.2525	99.9866	100.026	199.987
11.255	99.9866	100.026	199.987
11.2575	99.9865	100.026	199.987
11.26	99.9865	100.026	199.988
11.2625	99.9865	100.026	199.988
11.265	99.9864	100.026	199.988
11.2675	99.9864	100.026	199.988
11.27	99.9863	100.026	199.988
11.2725	99.9863	100.026	199.988
11.275	99.9862	100.026	199.988
11.2775	99.9862	100.026	199.988
11.28	99.9861	100.026	199.988
11.2825	99.9861	100.026	199.988
11.285	99.986	100.026	199.988
11.2875	99.986	100.026	199.988
11.29	99.986	100.026	199.988
11.2925	99.9859	100.026	199.989
11.295	99.9859	100.026	199.989
11.2975	99.9858	100.025	199.989
11.3	99.9858	100.025	199.989
11.3025	99.9857	100.025	199.989
11.305	99.9857	100.025	199.989
11.3075	99.9857	100.025	199.989
11.31	99.9856	100.025	199.989
11.3125	99.9856	100.025	199.989
11.315	99.9855	100.025	199.989
11.3175	99.9855	100.025	199.989
11.32	99.9855	100.025	199.989
11.3225	99.9854	100.025	199.989
11.325	99.9854	100.025	199.99
11.3275	99.9853	100.025	199.99
11.33	99.9853	100.025	199.99
11.3325	99.9853	100.025	199.99
11.335	99.9852	100.025	199.99
11.3375	99.9852	100.025	199.99
11.34	99.9852	100.025	199.99
11.3425	99.9851	100.025	199.99
11.345	99.9851	100.025	199.99
11.3475	99.985	100.025	199.99
11.35	99.985	100.025	199.99
11.3525	99.985	100.025	199.99
11.355	99.9849	100.025	199.99
11.3575	99.9849	100.025	199.991
11.36	99.9849	100.025	199.991
11.3625	99.9848	100.025	199.991
11.365	99.9848	100.024	199.991
11.3675	99.9848	100.024	199.991
11.37	99.9847	100.024	199.991
11.3725	99.9847	100.024	199.991
11.375	99.9847	100.024	199.991
11.3775	99.9846	100.024	199.991
11.38	99.9846	100.024	199.991
11.3825	99.9846	100.024	199.991
11.385	99.9845	100.024	199.991
11.3875	99.9845	100.024	199.991
11.39	99.9845	100.024	199.991
11.3925	99.9844	100.024	199.992
11.395	99.9844	100.024	199.992
11.3975	99.9844	100.024	199.992
11.4	99.9843	100.024	199.992
11.4025	99.9843	100.024	199.992
11.405	99.9843	100.024	199.992
11.4075	99.9842	100.024	199.992
11.41	99.9842	100.024	199.992
11.4125	99.9842	100.024	199.992
11.415	99.9842	100.024	199.992
11.4175	99.9841	100.024	199.992
11.42	99.9841	100.024	199.992
11.4225	99.9841	100.024	199.992
11.425	99.984	100.024	199.992
11.4275	99.984	100.024	199.992
11.43	99.984	100.023	199.993
11.4325	99.984	100.023	199.993
11.435	99.9839	100.023	199.993
11.4375	99.9839	100.023	199.993
11.44	99.9839	100.023	199.993
11.4425	99.9838	100.023	199.993
11.445	99.9838	100.023	199.993
11.4475	99.9838	100.023	199.993
11.45	99.9838	100.023	199.993
11.4525	99.9837	100.023	199.993
11.455	99.9837	100.023	199.993
11.4575	99.9837	100.023	199.993
11.46	99.9837	100.023	199.993
11.4625	99.9836	100.023	199.993
11.465	99.9836	100.023	199.993
11.4675	99.9836	100.023	199.994
11.47	99.9836	100.023	199.994
11.4725	99.9835	100.023	199.994
11.475	99.9835	100.023	199.994
11.4775	99.9835	100.023	199.994
11.48	99.9835	100.023	199.994
11.4825	99.9834	100.023	199.994
11.485	99.9834	100.023	199.994
11.4875	99.9834	100.023	199.994
11.49	99.9834	100.022	199.994
11.4925	99.9834	100.022	199.994
11.495	99.9833	100.022	199.994
11.4975	99.9833	100.022	199.994
11.5	99.9833	100.022	199.994
11.5025	99.9833	100.022	199.994
11.505	99.9833	100.022	199.995
11.5075	99.9832	100.022	199.995
11.51	99.9832	100.022	199.995
11.5125	99.9832	100.022	199.995
11.515	99.9832	100.022	199.995
11.5175	99.9832	100.022	199.995
11.52	99.9831	100.022	199.995
11.5225	99.9831	100.022	199.995
11.525	99.9831	100.022	199.995
11.5275	99.9831	100.022	199.995
11.53	99.9831	100.022	199.995
11.5325	99.983	100.022	199.995
11.535	99.983	100.022	199.995
11.5375	99.983	100.022	199.995
11.54	99.983	100.022	199.995
11.5425	99.983	100.022	199.995
11.545	99.983	100.022	199.995
11.5475	99.9829	100.022	199.996
11.55	99.9829	100.021	199.996
11.5525	99.9829	100.021	199.996
11.555	99.9829	100.021	199.996
11.5575	99.9829	100.021	199.996
11.56	99.9829	100.021	199.996
11.5625	99.9828	100.021	199.996
11.565	99.9828	100.021	199.996
11.5675	99.9828	100.021	199.996
11.57	99.9828	100.021	199.996
11.5725	99.9828	100.021	199.996
11.575	99.9828	100.021	199.996
11.5775	99.9828	100.021	199.996
11.58	99.9827	100.021	199.996
11.5825	99.9827	100.021	199.996
11.585	99.9827	100.021	199.996
11.5875	99.9827	100.021	199.996
11.59	99.9827	100.021	199.997
11.5925	99.9827	100.021	199.997
11.595	99.9827	100.021	199.997
11.5975	99.9826	100.021	199.997
11.6	99.9826	100.021	199.997
11.6025	99.9826	100.021	199.997
11.605	99.9826	100.021	199.997
11.6075	99.9826	100.02	199.997
11.61	99.9826	100.02	199.997
11.6125	99.9826	100.02	199.997
11.615	99.9826	100.02	199.997
11.6175	99.9826	100.02	199.997
11.62	99.9825	100.02	199.997
11.6225	99.9825	100.02	199.997
11.625	99.9825	100.02	199.997
11.6275	99.9825	100.02	199.997
11.63	99.9825	100.02	199.997
11.6325	99.9825	100.02	199.997
11.635	99.9825	100.02	199.998
11.6375	99.9825	100.02	199.998
11.64	99.9825	100.02	199.998
11.6425	99.9825	100.02	199.998
11.645	99.9824	100.02	199.998
11.6475	99.9824	100.02	199.998
11.65	99.9824	100.02	199.998
11.6525	99.9824	100.02	199.998
11.655	99.9824	100.02	199.998
11.6575	99.9824	100.02	199.998
11.66	99.9824	100.02	199.998
11.6625	99.9824	100.02	199.998
11.665	99.9824	100.019	199.998
11.6675	99.9824	100.019	199.998
11.67	99.9824	100.019	199.998
11.6725	99.9824	100.019	199.998
11.675	99.9824	100.019	199.998
11.6775	99.9824	100.019	199.998
11.68	99.9823	100.019	199.998
11.6825	99.9823	100.019	199.998
11.685	99.9823	100.019	199.999
11.6875	99.9823	100.019	199.999
11.69	99.9823	100.019	199.999
11.6925	99.9823	100.019	199.999
11.695	99.9823	100.019	199.999
11.6975	99.9823	100.019	199.999
11.7	99.9823	100.019	199.999
11.7025	99.9823	100.019	199.999
11.705	99.9823	100.019	199.999
11.7075	99.9823	100.019	199.999
11.71	99.9823	100.019	199.999
11.7125	99.9823	100.019	199.999
11.715	99.9823	100.019	199.999
11.7175	99.9823	100.019	199.999
11.72	99.9823	100.018	199.999
11.7225	99.9823	100.018	199.999
11.725	99.9823	100.018	199.999
11.7275	99.9823	100.018	199.999
11.73	99.9823	100.018	199.999
11.7325	99.9823	100.018	199.999
11.735	99.9823	100.018	200
11.7375	99.9823	100.018	200
11.74	99.9823	100.018	200
11.7425	99.9823	100.018	200
11.745	99.9823	100.018	200
11.7475	99.9823	100.018	200
11.75	99.9823	100.018	200
11.7525	99.9823	100.018	200
11.755	99.9823	100.018	200
11.7575	99.9823	100.018	200
11.76	99.9823	100.018	200
11.7625	99.9823	100.018	200
11.765	99.9823	100.018	200
11.7675	99.9823	100.018	200
11.77	99.9823	100.018	200
11.7725	99.9823	100.018	200
11.775	99.9823	100.018	200
11.7775	99.9823	100.017	200
11.78	99.9823	100.017	200
11.7825	99.9823	100.017	200
11.785	99.9823	100.017	200
11.7875	99.9823	100.017	200
11.79	99.9823	100.017	200
11.7925	99.9823	100.017	200.001
11.795	99.9823	100.017	200.001
11.7975	99.9823	100.017	200.001
11.8	99.9823	100.017	200.001
11.8025	99.9823	100.017	200.001
11.805	99.9823	100.017	200.001
11.8075	99.9823	100.017	200.001
11.81	99.9823	100.017	200.001
11.8125	99.9823	100.017	200.001
11.815	99.9823	100.017	200.001
11.8175	99.9823	100.017	200.001
11.82	99.9823	100.017	200.001
11.8225	99.9823	100.017	200.001
11.825	99.9823	100.017	200.001
11.8275	99.9823	100.017	200.001
11.83	99.9823	100.017	200.001
11.8325	99.9823	100.017	200.001
11.835	99.9823	100.016	200.001
11.8375	99.9823	100.016	200.001
11.84	99.9823	100.016	200.001
11.8425	99.9823	100.016	200.001
11.845	99.9823	100.016	200.001
11.8475	99.9823	100.016	200.001
11.85	99.9824	100.016	200.001
11.8525	99.9824	100.016	200.001
11.855	99.9824	100.016	200.002
11.8575	99.9824	100.016	200.002
11.86	99.9824	100.016	200.002
11.8625	99.9824	100.016	200.002
11.865	99.9824	100.016	200.002
11.8675	99.9824	100.016	200.002
11.87	99.9824	100.016	200.002
11.8725	99.9824	100.016	200.002
11.875	99.9824	100.016	200.002
11.8775	99.9824	100.016	200.002
11.88	99.9824	100.016	200.002
11.8825	99.9824	100.016	200.002
11.885	99.9824	100.016	200.002
11.8875	99.9825	100.016	200.002
11.89	99.9825	100.015	200.002
11.8925	99.9825	100.015	200.002
11.895	99.9825	100.015	200.002
11.8975	99.9825	100.015	200.002
11.9	99.9825	100.015	200.002
11.9025	99.9825	100.015	200.002
11.905	99.9825	100.015	200.002
11.9075	99.9825	100.015	200.002
11.91	99.9825	100.015	200.002
11.9125	99.9825	100.015	200.002
11.915	99.9825	100.015	200.002
11.9175	99.9826	100.015	200.002
11.92	99.9826	100.015	200.002
11.9225	99.9826	100.015	200.003
11.925	99.9826	100.015	200.003
11.9275	99.9826	100.015	200.003
11.93	99.9826	100.015	200.003
11.9325	99.9826	100.015	200.003
11.935	99.9826	100.015	200.003
11.9375	99.9826	100.015	200.003
11.94	99.9826	100.015	200.003
11.9425	99.9826	100.015	200.003
11.945	99.9827	100.015	200.003
11.9475	99.9827	100.014	200.003
11.95	99.9827	100.014	200.003
11.9525	99.9827	100.014	200.003
11.955	99.9827	100.014	200.003
11.9575	99.9827	100.014	200.003
11.96	99.9827	100.014	200.003
11.9625	99.9827	100.014	200.003
11.965	99.9827	100.014	200.003
11.9675	99.9828	100.014	200.003
11.97	99.9828	100.014	200.003
11.9725	99.9828	100.014	200.003
11.975	99.9828	100.014	200.003
11.9775	99.9828	100.014	200.003
11.98	99.9828	100.014	200.003
11.9825	99.9828	100.014	200.003
11.985	99.9828	100.014	200.003
11.9875	99.9829	100.014	200.003
11.99	99.9829	100.014	200.003
11.9925	99.9829	100.014	200.003
11.995	99.9829	100.014	200.003
11.9975	99.9829	100.014	200.003
12	99.9829	100.014	200.003
12.0025	99.9829	100.014	200.004
12.005	99.9829	100.013	200.004
12.0075	99.983	100.013	200.004
12.01	99.983	100.013	200.004
12.0125	99.983	100.013	200.004
12.015	99.983	100.013	200.004
12.0175	99.983	100.013	200.004
12.02	99.983	100.013	200.004
12.0225	99.983	100.013	200.004
12.025	99.9831	100.013	200.004
12.0275	99.9831	100.013	200.004
12.03	99.9831	100.013	200.004
12.0325	99.9831	100.013	200.004
12.035	99.9831	100.013	200.004
12.0375	99.9831	100.013	200.004
12.04	99.9831	100.013	200.004
12.0425	99.9832	100.013	200.004
12.045	99.9832	100.013	200.004
12.0475	99.9832	100.013	200.004
12.05	99.9832	100.013	200.004
12.0525	99.9832	100.013	200.004
12.055	99.9832	100.013	200.004
12.0575	99.9833	100.013	200.004
12.06	99.9833	100.013	200.004
12.0625	99.9833	100.013	200.004
12.065	99.9833	100.012	200.004
12.0675	99.9833	100.012	200.004
12.07	99.9833	100.012	200.004
12.0725	99.9833	100.012	200.004
12.075	99.9834	100.012	200.004
12.0775	99.9834	100.012	200.004
12.08	99.9834	100.012	200.004
12.0825	99.9834	100.012	200.004
12.085	99.9834	100.012	200.004
12.0875	99.9834	100.012	200.004
12.09	99.9835	100.012	200.004
12.0925	99.9835	100.012	200.004
12.095	99.9835	100.012	200.005
12.0975	99.9835	100.012	200.005
12.1	99.9835	100.012	200.005
12.1025	99.9835	100.012	200.005
12.105	99.9836	100.012	200.005
12.1075	99.9836	100.012	200.005
12.11	99.9836	100.012	200.005
12.1125	99.9836	100.012	200.005
12.115	99.9836	100.012	200.005
12.1175	99.9837	100.012	200.005
12.12	99.9837	100.012	200.005
12.1225	99.9837	100.012	200.005
12.125	99.9837	100.011	200.005
12.1275	99.9837	100.011	200.005
12.13	99.9837	100.011	200.005
12.1325	99.9838	100.011	200.005
12.135	99.9838	100.011	200.005
12.1375	99.9838	100.011	200.005
12.14	99.9838	100.011	200.005
12.1425	99.9838	100.011	200.005
12.145	99.9839	100.011	200.005
12.1475	99.9839	100.011	200.005
12.15	99.9839	100.011	200.005
12.1525	99.9839	100.011	200.005
12.155	99.9839	100.011	200.005
12.1575	99.9839	100.011	200.005
12.16	99.984	100.011	200.005
12.1625	99.984	100.011	200.005
12.165	99.984	100.011	200.005
12.1675	99.984	100.011	200.005
12.17	99.984	100.011	200.005
12.1725	99.9841	100.011	200.005
12.175	99.9841	100.011	200.005
12.1775	99.9841	100.011	200.005
12.18	99.9841	100.011	200.005
12.1825	99.9841	100.011	200.005
12.185	99.9842	100.011	200.005
12.1875	99.9842	100.01	200.005
12.19	99.9842	100.01	200.005
12.1925	99.9842	100.01	200.005
12.195	99.9842	100.01	200.005
12.1975	99.9843	100.01	200.005
12.2	99.9843	100.01	200.005
12.2025	99.9843	100.01	200.005
12.205	99.9843	100.01	200.005
12.2075	99.9843	100.01	200.005
12.21	99.9844	100.01	200.006
12.2125	99.9844	100.01	200.006
12.215	99.9844	100.01	200.006
12.2175	99.9844	100.01	200.006
12.22	99.9844	100.01	200.006
12.2225	99.9845	100.01	200.006
12.225	99.9845	100.01	200.006
12.2275	99.9845	100.01	200.006
12.23	99.9845	100.01	200.006
12.2325	99.9846	100.01	200.006
12.235	99.9846	100.01	200.006
12.2375	99.9846	100.01	200.006
12.24	99.9846	100.01	200.006
12.2425	99.9846	100.01	200.006
12.245	99.9847	100.01	200.006
12.2475	99.9847	100.01	200.006
12.25	99.9847	100.01	200.006
12.2525	99.9847	100.009	200.006
12.255	99.9847	100.009	200.006
12.2575	99.9848	100.009	200.006
12.26	99.9848	100.009	200.006
12.2625	99.9848	100.009	200.006
12.265	99.9848	100.009	200.006
12.2675	99.9849	100.009	200.006
12.27	99.9849	100.009	200.006
12.2725	99.9849	100.009	200.006
12.275	99.9849	100.009	200.006
12.2775	99.9849	100.009	200.006
12.28	99.985	100.009	200.006
12.2825	99.985	100.009	200.006
12.285	99.985	100.009	200.006
12.2875	99.985	100.009	200.006
12.29	99.9851	100.009	200.006
12.2925	99.9851	100.009	200.006
12.295	99.9851	100.009	200.006
12.2975	99.9851	100.009	200.006
12.3	99.9851	100.009	200.006
12.3025	99.9852	100.009	200.006
12.305	99.9852	100.009	200.006
12.3075	99.9852	100.009	200.006
12.31	99.9852	100.009	200.006
12.3125	99.9853	100.009	200.006
12.315	99.9853	100.009	200.006
12.3175	99.9853	100.009	200.006
12.32	99.9853	100.008	200.006
12.3225	99.9854	100.008	200.006
12.325	99.9854	100.008	200.006
12.3275	99.9854	100.008	200.006
12.33	99.9854	100.008	200.006
12.3325	99.9854	100.008	200.006
12.335	99.9855	100.008	200.006
12.3375	99.9855	100.008	200.006
12.34	99.9855	100.008	200.006
12.3425	99.9855	100.008	200.006
12.345	99.9856	100.008	200.006
12.3475	99.9856	100.008	200.006
12.35	99.9856	100.008	200.006
12.3525	99.9856	100.008	200.006
12.355	99.9857	100.008	200.006
12.3575	99.9857	100.008	200.006
12.36	99.9857	100.008	200.006
12.3625	99.9857	100.008	200.006
12.365	99.9858	100.008	200.006
12.3675	99.9858	100.008	200.006
12.37	99.9858	100.008	200.006
12.3725	99.9858	100.008	200.006
12.375	99.9859	100.008	200.006
12.3775	99.9859	100.008	200.006
12.38	99.9859	100.008	200.006
12.3825	99.9859	100.008	200.007
12.385	99.986	100.008	200.007
12.3875	99.986	100.008	200.007
12.39	99.986	100.007	200.007
12.3925	99.986	100.007	200.007
12.395	99.986	100.007	200.007
12.3975	99.9861	100.007	200.007
12.4	99.9861	100.007	200.007
12.4025	99.9861	100.007	200.007
12.405	99.9861	100.007	200.007
12.4075	99.9862	100.007	200.007
12.41	99.9862	100.007	200.007
12.4125	99.9862	100.007	200.007
12.415	99.9862	100.007	200.007
12.4175	99.9863	100.007	200.007
12.42	99.9863	100.007	200.007
12.4225	99.9863	100.007	200.007
12.425	99.9863	100.007	200.007
12.4275	99.9864	100.007	200.007
12.43	99.9864	100.007	200.007
12.4325	99.9864	100.007	200.007
12.435	99.9864	100.007	200.007
12.4375	99.9865	100.007	200.007
12.44	99.9865	100.007	200.007
12.4425	99.9865	100.007	200.007
12.445	99.9865	100.007	200.007
12.4475	99.9866	100.007	200.007
12.45	99.9866	100.007	200.007
12.4525	99.9866	100.007	200.007
12.455	99.9866	100.007	200.007
12.4575	99.9867	100.007	200.007
12.46	99.9867	100.007	200.007
12.4625	99.9867	100.006	200.007
12.465	99.9868	100.006	200.007
12.4675	99.9868	100.006	200.007
12.47	99.9868	100.006	200.007
12.4725	99.9868	100.006	200.007
12.475	99.9869	100.006	200.007
12.4775	99.9869	100.006	200.007
12.48	99.9869	100.006	200.007
12.4825	99.9869	100.006	200.007
12.485	99.987	100.006	200.007
12.4875	99.987	100.006	200.007
12.49	99.987	100.006	200.007
12.4925	99.987	100.006	200.007
12.495	99.9871	100.006	200.007
12.4975	99.9871	100.006	200.007
12.5	99.9871	100.006	200.007
12.5025	99.9871	100.006	200.007
12.505	99.9872	100.006	200.007
12.5075	99.9872	100.006	200.007
12.51	99.9872	100.006	200.007
12.5125	99.9872	100.006	200.007
12.515	99.9873	100.006	200.007
12.5175	99.9873	100.006	200.007
12.52	99.9873	100.006	200.007
12.5225	99.9873	100.006	200.007
12.525	99.9874	100.006	200.007
12.5275	99.9874	100.006	200.007
12.53	99.9874	100.006	200.007
12.5325	99.9874	100.006	200.007
12.535	99.9875	100.006	200.007
12.5375	99.9875	100.006	200.007
12.54	99.9875	100.005	200.007
12.5425	99.9876	100.005	200.007
12.545	99.9876	100.005	200.007
12.5475	99.9876	100.005	200.007
12.55	99.9876	100.005	200.007
12.5525	99.9877	100.005	200.007
12.555	99.9877	100.005	200.007
12.5575	99.9877	100.005	200.007
12.56	99.9877	100.005	200.007
12.5625	99.9878	100.005	200.007
12.565	99.9878	100.005	200.007
12.5675	99.9878	100.005	200.007
12.57	99.9878	100.005	200.007
12.5725	99.9879	100.005	200.007
12.575	99.9879	100.005	200.007
12.5775	99.9879	100.005	200.007
12.58	99.988	100.005	200.007
12.5825	99.988	100.005	200.007
12.585	99.988	100.005	200.007
12.5875	99.988	100.005	200.007
12.59	99.9881	100.005	200.007
12.5925	99.9881	100.005	200.007
12.595	99.9881	100.005	200.007
12.5975	99.9881	100.005	200.007
12.6	99.9882	100.005	200.007
12.6025	99.9882	100.005	200.007
12.605	99.9882	100.005	200.007
12.6075	99.9882	100.005	200.007
12.61	99.9883	100.005	200.007
12.6125	99.9883	100.005	200.007
12.615	99.9883	100.005	200.007
12.6175	99.9883	100.005	200.007
12.62	99.9884	100.005	200.007
12.6225	99.9884	100.004	200.007
12.625	99.9884	100.004	200.007
12.6275	99.9885	100.004	200.007
12.63	99.9885	100.004	200.007
12.6325	99.9885	100.004	200.007
12.635	99.9885	100.004	200.007
12.6375	99.9886	100.004	200.007
12.64	99.9886	100.004	200.007
12.6425	99.9886	100.004	200.007
12.645	99.9886	100.004	200.007
12.6475	99.9887	100.004	200.007
12.65	99.9887	100.004	200.007
12.6525	99.9887	100.004	200.007
12.655	99.9887	100.004	200.007
12.6575	99.9888	100.004	200.007
12.66	99.9888	100.004	200.007
12.6625	99.9888	100.004	200.007
12.665	99.9889	100.004	200.007
12.6675	99.9889	100.004	200.007
12.67	99.9889	100.004	200.007
12.6725	99.9889	100.004	200.007
12.675	99.989	100.004	200.007
12.6775	99.989	100.004	200.007
12.68	99.989	100.004	200.007
12.6825	99.989	100.004	200.007
12.685	99.9891	100.004	200.007
12.6875	99.9891	100.004	200.007
12.69	99.9891	100.004	200.007
12.6925	99.9892	100.004	200.007
12.695	99.9892	100.004	200.007
12.6975	99.9892	100.004	200.007
12.7	99.9892	100.004	200.007
12.7025	99.9893	100.004	200.007
12.705	99.9893	100.004	200.007
12.7075	99.9893	100.004	200.007
12.71	99.9893	100.004	200.007
12.7125	99.9894	100.003	200.007
12.715	99.9894	100.003	200.007
12.7175	99.9894	100.003	200.007
12.72	99.9894	100.003	200.007
12.7225	99.9895	100.003	200.007
12.725	99.9895	100.003	200.007
12.7275	99.9895	100.003	200.007
12.73	99.9896	100.003	200.007
12.7325	99.9896	100.003	200.007
12.735	99.9896	100.003	200.007
12.7375	99.9896	100.003	200.007
12.74	99.9897	100.003	200.007
12.7425	99.9897	100.003	200.007
12.745	99.9897	100.003	200.007
12.7475	99.9897	100.003	200.007
12.75	99.9898	100.003	200.007
12.7525	99.9898	100.003	200.007
12.755	99.9898	100.003	200.007
12.7575	99.9898	100.003	200.007
12.76	99.9899	100.003	200.007
12.7625	99.9899	100.003	200.007
12.765	99.9899	100.003	200.007
12.7675	99.99	100.003	200.007
12.77	99.99	100.003	200.007
12.7725	99.99	100.003	200.007
12.775	99.99	100.003	200.007
12.7775	99.9901	100.003	200.007
12.78	99.9901	100.003	200.007
12.7825	99.9901	100.003	200.007
12.785	99.9901	100.003	200.007
12.7875	99.9902	100.003	200.007
12.79	99.9902	100.003	200.007
12.7925	99.9902	100.003	200.007
12.795	99.9902	100.003	200.007
12.7975	99.9903	100.003	200.007
12.8	99.9903	100.003	200.007
12.8025	99.9903	100.003	200.007
12.805	99.9904	100.003	200.007
12.8075	99.9904	100.003	200.007
12.81	99.9904	100.002	200.007
12.8125	99.9904	100.002	200.007
12.815	99.9905	100.002	200.007
12.8175	99.9905	100.002	200.007
12.82	99.9905	100.002	200.007
12.8225	99.9905	100.002	200.007
12.825	99.9906	100.002	200.007
12.8275	99.9906	100.002	200.007
12.83	99.9906	100.002	200.007
12.8325	99.9906	100.002	200.007
12.835	99.9907	100.002	200.007
12.8375	99.9907	100.002	200.007
12.84	99.9907	100.002	200.007
12.8425	99.9908	100.002	200.007
12.845	99.9908	100.002	200.007
12.8475	99.9908	100.002	200.007
12.85	99.9908	100.002	200.007
12.8525	99.9909	100.002	200.007
12.855	99.9909	100.002	200.007
12.8575	99.9909	100.002	200.007
12.86	99.9909	100.002	200.007
12.8625	99.991	100.002	200.007
12.865	99.991	100.002	200.007
12.8675	99.991	100.002	200.007
12.87	99.991	100.002	200.007
12.8725	99.9911	100.002	200.007
12.875	99.9911	100.002	200.007
12.8775	99.9911	100.002	200.007
12.88	99.9911	100.002	200.007
12.8825	99.9912	100.002	200.007
12.885	99.9912	100.002	200.007
12.8875	99.9912	100.002	200.007
12.89	99.9913	100.002	200.007
12.8925	99.9913	100.002	200.007
12.895	99.9913	100.002	200.007
12.8975	99.9913	100.002	200.007
12.9	99.9914	100.002	200.007
12.9025	99.9914	100.002	200.007
12.905	99.9914	100.002	200.007
12.9075	99.9914	100.002	200.007
12.91	99.9915	100.002	200.007
12.9125	99.9915	100.002	200.007
12.915	99.9915	100.002	200.007
12.9175	99.9915	100.002	200.007
12.92	99.9916	100.002	200.007
12.9225	99.9916	100.001	200.007
12.925	99.9916	100.001	200.007
12.9275	99.9916	100.001	200.007
12.93	99.9917	100.001	200.007
12.9325	99.9917	100.001	200.007
12.935	99.9917	100.001	200.007
12.9375	99.9917	100.001	200.007
12.94	99.9918	100.001	200.007
12.9425	99.9918	100.001	200.007
12.945	99.9918	100.001	200.007
12.9475	99.9919	100.001	200.007
12.95	99.9919	100.001	200.007
12.9525	99.9919	100.001	200.007
12.955	99.9919	100.001	200.007
12.9575	99.992	100.001	200.007
12.96	99.992	100.001	200.007
12.9625	99.992	100.001	200.007
12.965	99.992	100.001	200.007
12.9675	99.9921	100.001	200.007
12.97	99.9921	100.001	200.007
12.9725	99.9921	100.001	200.007
12.975	99.9921	100.001	200.007
12.9775	99.9922	100.001	200.007
12.98	99.9922	100.001	200.007
12.9825	99.9922	100.001	200.007
12.985	99.9922	100.001	200.007
12.9875	99.9923	100.001	200.007
12.99	99.9923	100.001	200.007
12.9925	99.9923	100.001	200.007
12.995	99.9923	100.001	200.007
12.9975	99.9924	100.001	200.007
13	99.9924	100.001	200.007
13.0025	99.9924	100.001	200.007
13.005	99.9924	100.001	200.007
13.0075	99.9925	100.001	200.007
13.01	99.9925	100.001	200.007
13.0125	99.9925	100.001	200.007
13.015	99.9925	100.001	200.007
13.0175	99.9926	100.001	200.007
13.02	99.9926	100.001	200.007
13.0225	99.9926	100.001	200.007
13.025	99.9926	100.001	200.007
13.0275	99.9927	100.001	200.007
13.03	99.9927	100.001	200.007
13.0325	99.9927	100.001	200.007
13.035	99.9927	100.001	200.007
13.0375	99.9928	100.001	200.007
13.04	99.9928	100.001	200.007
13.0425	99.9928	100.001	200.007
13.045	99.9928	100.001	200.007
13.0475	99.9929	100.001	200.007
13.05	99.9929	100	200.007
13.0525	99.9929	100	200.007
13.055	99.9929	100	200.007
13.0575	99.993	100	200.007
13.06	99.993	100	200.007
13.0625	99.993	100	200.007
13.065	99.993	100	200.007
13.0675	99.9931	100	200.007
13.07	99.9931	100	200.007
13.0725	99.9931	100	200.007
13.075	99.9931	100	200.007
13.0775	99.9932	100	200.007
13.08	99.9932	100	200.007
13.0825	99.9932	100	200.007
13.085	99.9932	100	200.007
13.0875	99.9933	100	200.007
13.09	99.9933	100	200.006
13.0925	99.9933	100	200.006
13.095	99.9933	100	200.006
13.0975	99.9934	100	200.006
13.1	99.9934	100	200.006
13.1025	99.9934	100	200.006
13.105	99.9934	100	200.006
13.1075	99.9935	100	200.006
13.11	99.9935	100	200.006
13.1125	99.9935	100	200.006
13.115	99.9935	100	200.006
13.1175	99.9935	100	200.006
13.12	99.9936	100	200.006
13.1225	99.9936	100	200.006
13.125	99.9936	100	200.006
13.1275	99.9936	100	200.006
13.13	99.9937	100	200.006
13.1325	99.9937	99.9999	200.006
13.135	99.9937	99.9999	200.006
13.1375	99.9937	99.9999	200.006
13.14	99.9938	99.9999	200.006
13.1425	99.9938	99.9999	200.006
13.145	99.9938	99.9999	200.006
13.1475	99.9938	99.9999	200.006
13.15	99.9939	99.9998	200.006
13.1525	99.9939	99.9998	200.006
13.155	99.9939	99.9998	200.006
13.1575	99.9939	99.9998	200.006
13.16	99.994	99.9998	200.006
13.1625	99.994	99.9998	200.006
13.165	99.994	99.9997	200.006
13.1675	99.994	99.9997	200.006
13.17	99.994	99.9997	200.006
13.1725	99.9941	99.9997	200.006
13.175	99.9941	99.9997	200.006
13.1775	99.9941	99.9997	200.006
13.18	99.9941	99.9997	200.006
13.1825	99.9942	99.9996	200.006
13.185	99.9942	99.9996	200.006
13.1875	99.9942	99.9996	200.006
13.19	99.9942	99.9996	200.006
13.1925	99.9943	99.9996	200.006
13.195	99.9943	99.9996	200.006
13.1975	99.9943	99.9996	200.006
13.2	99.9943	99.9995	200.006
13.2025	99.9943	99.9995	200.006
13.205	99.9944	99.9995	200.006
13.2075	99.9944	99.9995	200.006
13.21	99.9944	99.9995	200.006
13.2125	99.9944	99.9995	200.006
13.215	99.9945	99.9995	200.006
13.2175	99.9945	99.9994	200.006
13.22	99.9945	99.9994	200.006
13.2225	99.9945	99.9994	200.006
13.225	99.9946	99.9994	200.006
13.2275	99.9946	99.9994	200.006
13.23	99.9946	99.9994	200.006
13.2325	99.9946	99.9994	200.006
13.235	99.9946	99.9993	200.006
13.2375	99.9947	99.9993	200.006
13.24	99.9947	99.9993	200.006
13.2425	99.9947	99.9993	200.006
13.245	99.9947	99.9993	200.006
13.2475	99.9948	99.9993	200.006
13.25	99.9948	99.9993	200.006
13.2525	99.9948	99.9993	200.006
13.255	99.9948	99.9992	200.006
13.2575	99.9948	99.9992	200.006
13.26	99.9949	99.9992	200.006
13.2625	99.9949	99.9992	200.006
13.265	99.9949	99.9992	200.006
13.2675	99.9949	99.9992	200.006
13.27	99.995	99.9992	200.006
13.2725	99.995	99.9992	200.006
13.275	99.995	99.9991	200.006
13.2775	99.995	99.9991	200.006
13.28	99.995	99.9991	200.006
13.2825	99.9951	99.9991	200.006
13.285	99.9951	99.9991	200.006
13.2875	99.9951	99.9991	200.006
13.29	99.9951	99.9991	200.006
13.2925	99.9952	99.9991	200.006
13.295	99.9952	99.999	200.006
13.2975	99.9952	99.999	200.006
13.3	99.9952	99.999	200.006
13.3025	99.9952	99.999	200.006
13.305	99.9953	99.999	200.006
13.3075	99.9953	99.999	200.006
13.31	99.9953	99.999	200.006
13.3125	99.9953	99.999	200.006
13.315	99.9953	99.9989	200.006
13.3175	99.9954	99.9989	200.006
13.32	99.9954	99.9989	200.006
13.3225	99.9954	99.9989	200.006
13.325	99.9954	99.9989	200.006
13.3275	99.9955	99.9989	200.006
13.33	99.9955	99.9989	200.006
13.3325	99.9955	99.9989	200.006
13.335	99.9955	99.9989	200.006
13.3375	99.9955	99.9988	200.006
13.34	99.9956	99.9988	200.006
13.3425	99.9956	99.9988	200.006
13.345	99.9956	99.9988	200.006
13.3475	99.9956	99.9988	200.006
13.35	99.9956	99.9988	200.006
13.3525	99.9957	99.9988	200.006
13.355	99.9957	99.9988	200.006
13.3575	99.9957	99.9988	200.006
13.36	99.9957	99.9987	200.006
13.3625	99.9957	99.9987	200.006
13.365	99.9958	99.9987	200.006
13.3675	99.9958	99.9987	200.005
13.37	99.9958	99.9987	200.005
13.3725	99.9958	99.9987	200.005
13.375	99.9958	99.9987	200.005
13.3775	99.9959	99.9987	200.005
13.38	99.9959	99.9987	200.005
13.3825	99.9959	99.9987	200.005
13.385	99.9959	99.9986	200.005
13.3875	99.996	99.9986	200.005
13.39	99.996	99.9986	200.005
13.3925	99.996	99.9986	200.005
13.395	99.996	99.9986	200.005
13.3975	99.996	99.9986	200.005
13.4	99.9961	99.9986	200.005
13.4025	99.9961	99.9986	200.005
13.405	99.9961	99.9986	200.005
13.4075	99.9961	99.9986	200.005
13.41	99.9961	99.9985	200.005
13.4125	99.9962	99.9985	200.005
13.415	99.9962	99.9985	200.005
13.4175	99.9962	99.9985	200.005
13.42	99.9962	99.9985	200.005
13.4225	99.9962	99.9985	200.005
13.425	99.9963	99.9985	200.005
13.4275	99.9963	99.9985	200.005
13.43	99.9963	99.9985	200.005
13.4325	99.9963	99.9985	200.005
13.435	99.9963	99.9984	200.005
13.4375	99.9964	99.9984	200.005
13.44	99.9964	99.9984	200.005
13.4425	99.9964	99.9984	200.005
13.445	99.9964	99.9984	200.005
13.4475	99.9964	99.9984	200.005
13.45	99.9964	99.9984	200.005
13.4525	99.9965	99.9984	200.005
13.455	99.9965	99.9984	200.005
13.4575	99.9965	99.9984	200.005
13.46	99.9965	99.9984	200.005
13.4625	99.9965	99.9984	200.005
13.465	99.9966	99.9983	200.005
13.4675	99.9966	99.9983	200.005
13.47	99.9966	99.9983	200.005
13.4725	99.9966	99.9983	200.005
13.475	99.9966	99.9983	200.005
13.4775	99.9967	99.9983	200.005
13.48	99.9967	99.9983	200.005
13.4825	99.9967	99.9983	200.005
13.485	99.9967	99.9983	200.005
13.4875	99.9967	99.9983	200.005
13.49	99.9968	99.9983	200.005
13.4925	99.9968	99.9983	200.005
13.495	99.9968	99.9982	200.005
13.4975	99.9968	99.9982	200.005
13.5	99.9968	99.9982	200.005
13.5025	99.9968	99.9982	200.005
13.505	99.9969	99.9982	200.005
13.5075	99.9969	99.9982	200.005
13.51	99.9969	99.9982	200.005
13.5125	99.9969	99.9982	200.005
13.515	99.9969	99.9982	200.005
13.5175	99.997	99.9982	200.005
13.52	99.997	99.9982	200.005
13.5225	99.997	99.9982	200.005
13.525	99.997	99.9981	200.005
13.5275	99.997	99.9981	200.005
13.53	99.997	99.9981	200.005
13.5325	99.9971	99.9981	200.005
13.535	99.9971	99.9981	200.005
13.5375	99.9971	99.9981	200.005
13.54	99.9971	99.9981	200.005
13.5425	99.9971	99.9981	200.005
13.545	99.9972	99.9981	200.005
13.5475	99.9972	99.9981	200.005
13.55	99.9972	99.9981	200.005
13.5525	99.9972	99.9981	200.005
13.555	99.9972	99.9981	200.005
13.5575	99.9972	99.9981	200.005
13.56	99.9973	99.998	200.005
13.5625	99.9973	99.998	200.005
13.565	99.9973	99.998	200.005
13.5675	99.9973	99.998	200.005
13.57	99.9973	99.998	200.005
13.5725	99.9973	99.998	200.005
13.575	99.9974	99.998	200.005
13.5775	99.9974	99.998	200.005
13.58	99.9974	99.998	200.005
13.5825	99.9974	99.998	200.005
13.585	99.9974	99.998	200.005
13.5875	99.9975	99.998	200.005
13.59	99.9975	99.998	200.005
13.5925	99.9975	99.998	200.005
13.595	99.9975	99.998	200.005
13.5975	99.9975	99.998	200.005
13.6	99.9975	99.9979	200.005
13.6025	99.9976	99.9979	200.005
13.605	99.9976	99.9979	200.004
13.6075	99.9976	99.9979	200.004
13.61	99.9976	99.9979	200.004
13.6125	99.9976	99.9979	200.004
13.615	99.9976	99.9979	200.004
13.6175	99.9977	99.9979	200.004
13.62	99.9977	99.9979	200.004
13.6225	99.9977	99.9979	200.004
13.625	99.9977	99.9979	200.004
13.6275	99.9977	99.9979	200.004
13.63	99.9977	99.9979	200.004
13.6325	99.9978	99.9979	200.004
13.635	99.9978	99.9979	200.004
13.6375	99.9978	99.9979	200.004
13.64	99.9978	99.9979	200.004
13.6425	99.9978	99.9978	200.004
13.645	99.9978	99.9978	200.004
13.6475	99.9979	99.9978	200.004
13.65	99.9979	99.9978	200.004
13.6525	99.9979	99.9978	200.004
13.655	99.9979	99.9978	200.004
13.6575	99.9979	99.9978	200.004
13.66	99.9979	99.9978	200.004
13.6625	99.9979	99.9978	200.004
13.665	99.998	99.9978	200.004
13.6675	99.998	99.9978	200.004
13.67	99.998	99.9978	200.004
13.6725	99.998	99.9978	200.004
13.675	99.998	99.9978	200.004
13.6775	99.998	99.9978	200.004
13.68	99.9981	99.9978	200.004
13.6825	99.9981	99.9978	200.004
13.685	99.9981	99.9978	200.004
13.6875	99.9981	99.9978	200.004
13.69	99.9981	99.9978	200.004
13.6925	99.9981	99.9977	200.004
13.695	99.9982	99.9977	200.004
13.6975	99.9982	99.9977	200.004
13.7	99.9982	99.9977	200.004
13.7025	99.9982	99.9977	200.004
13.705	99.9982	99.9977	200.004
13.7075	99.9982	99.9977	200.004
13.71	99.9982	99.9977	200.004
13.7125	99.9983	99.9977	200.004
13.715	99.9983	99.9977	200.004
13.7175	99.9983	99.9977	200.004
13.72	99.9983	99.9977	200.004
13.7225	99.9983	99.9977	200.004
13.725	99.9983	99.9977	200.004
13.7275	99.9983	99.9977	200.004
13.73	99.9984	99.9977	200.004
13.7325	99.9984	99.9977	200.004
13.735	99.9984	99.9977	200.004
13.7375	99.9984	99.9977	200.004
13.74	99.9984	99.9977	200.004
13.7425	99.9984	99.9977	200.004
13.745	99.9985	99.9977	200.004
13.7475	99.9985	99.9977	200.004
13.75	99.9985	99.9976	200.004
13.7525	99.9985	99.9976	200.004
13.755	99.9985	99.9976	200.004
13.7575	99.9985	99.9976	200.004
13.76	99.9985	99.9976	200.004
13.7625	99.9986	99.9976	200.004
13.765	99.9986	99.9976	200.004
13.7675	99.9986	99.9976	200.004
13.77	99.9986	99.9976	200.004
13.7725	99.9986	99.9976	200.004
13.775	99.9986	99.9976	200.004
13.7775	99.9986	99.9976	200.004
13.78	99.9987	99.9976	200.004
13.7825	99.9987	99.9976	200.004
13.785	99.9987	99.9976	200.004
13.7875	99.9987	99.9976	200.004
13.79	99.9987	99.9976	200.004
13.7925	99.9987	99.9976	200.004
13.795	99.9987	99.9976	200.004
13.7975	99.9987	99.9976	200.004
13.8	99.9988	99.9976	200.004
13.8025	99.9988	99.9976	200.004
13.805	99.9988	99.9976	200.004
13.8075	99.9988	99.9976	200.004
13.81	99.9988	99.9976	200.004
13.8125	99.9988	99.9976	200.004
13.815	99.9988	99.9976	200.004
13.8175	99.9989	99.9976	200.004
13.82	99.9989	99.9976	200.004
13.8225	99.9989	99.9976	200.004
13.825	99.9989	99.9976	200.004
13.8275	99.9989	99.9975	200.004
13.83	99.9989	99.9975	200.004
13.8325	99.9989	99.9975	200.004
13.835	99.999	99.9975	200.004
13.8375	99.999	99.9975	200.003
13.84	99.999	99.9975	200.003
13.8425	99.999	99.9975	200.003
13.845	99.999	99.9975	200.003
13.8475	99.999	99.9975	200.003
13.85	99.999	99.9975	200.003
13.8525	99.999	99.9975	200.003
13.855	99.9991	99.9975	200.003
13.8575	99.9991	99.9975	200.003
13.86	99.9991	99.9975	200.003
13.8625	99.9991	99.9975	200.003
13.865	99.9991	99.9975	200.003
13.8675	99.9991	99.9975	200.003
13.87	99.9991	99.9975	200.003
13.8725	99.9991	99.9975	200.003
13.875	99.9992	99.9975	200.003
13.8775	99.9992	99.9975	200.003
13.88	99.9992	99.9975	200.003
13.8825	99.9992	99.9975	200.003
13.885	99.9992	99.9975	200.003
13.8875	99.9992	99.9975	200.003
13.89	99.9992	99.9975	200.003
13.8925	99.9992	99.9975	200.003
13.895	99.9993	99.9975	200.003
13.8975	99.9993	99.9975	200.003
13.9	99.9993	99.9975	200.003
13.9025	99.9993	99.9975	200.003
13.905	99.9993	99.9975	200.003
13.9075	99.9993	99.9975	200.003
13.91	99.9993	99.9975	200.003
13.9125	99.9993	99.9975	200.003
13.915	99.9994	99.9975	200.003
13.9175	99.9994	99.9975	200.003
13.92	99.9994	99.9975	200.003
13.9225	99.9994	99.9975	200.003
13.925	99.9994	99.9975	200.003
13.9275	99.9994	99.9975	200.003
13.93	99.9994	99.9975	200.003
13.9325	99.9994	99.9975	200.003
13.935	99.9994	99.9975	200.003
13.9375	99.9995	99.9975	200.003
13.94	99.9995	99.9975	200.003
13.9425	99.9995	99.9975	200.003
13.945	99.9995	99.9975	200.003
13.9475	99.9995	99.9975	200.003
13.95	99.9995	99.9975	200.003
13.9525	99.9995	99.9975	200.003
13.955	99.9995	99.9974	200.003
13.9575	99.9995	99.9974	200.003
13.96	99.9996	99.9974	200.003
13.9625	99.9996	99.9974	200.003
13.965	99.9996	99.9974	200.003
13.9675	99.9996	99.9974	200.003
13.97	99.9996	99.9974	200.003
13.9725	99.9996	99.9974	200.003
13.975	99.9996	99.9974	200.003
13.9775	99.9996	99.9974	200.003
13.98	99.9996	99.9974	200.003
13.9825	99.9997	99.9974	200.003
13.985	99.9997	99.9974	200.003
13.9875	99.9997	99.9974	200.003
13.99	99.9997	99.9974	200.003
13.9925	99.9997	99.9974	200.003
13.995	99.9997	99.9974	200.003
13.9975	99.9997	99.9974	200.003
14	99.9997	99.9974	200.003
14.0025	99.9997	99.9974	200.003
14.005	99.9998	99.9974	200.003
14.0075	99.9998	99.9974	200.003
14.01	99.9998	99.9974	200.003
14.0125	99.9998	99.9974	200.003
14.015	99.9998	99.9974	200.003
14.0175	99.9998	99.9974	200.003
14.02	99.9998	99.9974	200.003
14.0225	99.9998	99.9974	200.003
14.025	99.9998	99.9974	200.003
14.0275	99.9998	99.9974	200.003
14.03	99.9999	99.9974	200.003
14.0325	99.9999	99.9974	200.003
14.035	99.9999	99.9974	200.003
14.0375	99.9999	99.9974	200.003
14.04	99.9999	99.9974	200.003
14.0425	99.9999	99.9974	200.003
14.045	99.9999	99.9974	200.003
14.0475	99.9999	99.9974	200.003
14.05	99.9999	99.9974	200.003
14.0525	99.9999	99.9974	200.003
14.055	100	99.9974	200.003
14.0575	100	99.9974	200.003
14.06	100	99.9974	200.003
14.0625	100	99.9974	200.003
14.065	100	99.9974	200.003
14.0675	100	99.9974	200.003
14.07	100	99.9974	200.003
14.0725	100	99.9974	200.003
14.075	100	99.9974	200.003
14.0775	100	99.9974	200.003
14.08	100	99.9974	200.003
14.0825	100	99.9974	200.003
14.085	100	99.9974	200.003
14.0875	100	99.9974	200.002
14.09	100	99.9974	200.002
14.0925	100	99.9974	200.002
14.095	100	99.9974	200.002
14.0975	100	99.9974	200.002
14.1	100	99.9974	200.002
14.1025	100	99.9974	200.002
14.105	100	99.9974	200.002
14.1075	100	99.9974	200.002
14.11	100	99.9974	200.002
14.1125	100	99.9974	200.002
14.115	100	99.9974	200.002
14.1175	100	99.9974	200.002
14.12	100	99.9974	200.002
14.1225	100	99.9974	200.002
14.125	100	99.9974	200.002
14.1275	100	99.9974	200.002
14.13	100	99.9974	200.002
14.1325	100	99.9974	200.002
14.135	100	99.9974	200.002
14.1375	100	99.9974	200.002
14.14	100	99.9974	200.002
14.1425	100	99.9974	200.002
14.145	100	99.9974	200.002
14.1475	100	99.9974	200.002
14.15	100	99.9974	200.002
14.1525	100	99.9974	200.002
14.155	100	99.9974	200.002
14.1575	100	99.9974	200.002
14.16	100	99.9974	200.002
14.1625	100	99.9974	200.002
14.165	100	99.9974	200.002
14.1675	100	99.9974	200.002
14.17	100	99.9974	200.002
14.1725	100	99.9974	200.002
14.175	100	99.9974	200.002
14.1775	100	99.9974	200.002
14.18	100	99.9974	200.002
14.1825	100	99.9974	200.002
14.185	100	99.9975	200.002
14.1875	100	99.9975	200.002
14.19	100	99.9975	200.002
14.1925	100	99.9975	200.002
14.195	100	99.9975	200.002
14.1975	100	99.9975	200.002
14.2	100	99.9975	200.002
14.2025	100	99.9975	200.002
14.205	100	99.9975	200.002
14.2075	100	99.9975	200.002
14.21	100	99.9975	200.002
14.2125	100.001	99.9975	200.002
14.215	100.001	99.9975	200.002
14.2175	100.001	99.9975	200.002
14.22	100.001	99.9975	200.002
14.2225	100.001	99.9975	200.002
14.225	100.001	99.9975	200.002
14.2275	100.001	99.9975	200.002
14.23	100.001	99.9975	200.002
14.2325	100.001	99.9975	200.002
14.235	100.001	99.9975	200.002
14.2375	100.001	99.9975	200.002
14.24	100.001	99.9975	200.002
14.2425	100.001	99.9975	200.002
14.245	100.001	99.9975	200.002
14.2475	100.001	99.9975	200.002
14.25	100.001	99.9975	200.002
14.2525	100.001	99.9975	200.002
14.255	100.001	99.9975	200.002
14.2575	100.001	99.9975	200.002
14.26	100.001	99.9975	200.002
14.2625	100.001	99.9975	200.002
14.265	100.001	99.9975	200.002
14.2675	100.001	99.9975	200.002
14.27	100.001	99.9975	200.002
14.2725	100.001	99.9975	200.002
14.275	100.001	99.9975	200.002
14.2775	100.001	99.9975	200.002
14.28	100.001	99.9975	200.002
14.2825	100.001	99.9975	200.002
14.285	100.001	99.9975	200.002
14.2875	100.001	99.9975	200.002
14.29	100.001	99.9975	200.002
14.2925	100.001	99.9975	200.002
14.295	100.001	99.9975	200.002
14.2975	100.001	99.9975	200.002
14.3	100.001	99.9975	200.002
14.3025	100.001	99.9975	200.002
14.305	100.001	99.9975	200.002
14.3075	100.001	99.9975	200.002
14.31	100.001	99.9975	200.002
14.3125	100.001	99.9975	200.002
14.315	100.001	99.9975	200.002
14.3175	100.001	99.9975	200.002
14.32	100.001	99.9975	200.002
14.3225	100.001	99.9975	200.002
14.325	100.001	99.9975	200.002
14.3275	100.001	99.9975	200.002
14.33	100.001	99.9975	200.002
14.3325	100.001	99.9975	200.002
14.335	100.001	99.9975	200.002
14.3375	100.001	99.9975	200.002
14.34	100.001	99.9976	200.002
14.3425	100.001	99.9976	200.002
14.345	100.001	99.9976	200.002
14.3475	100.001	99.9976	200.002
14.35	100.001	99.9976	200.002
14.3525	100.001	99.9976	200.002
14.355	100.001	99.9976	200.002
14.3575	100.001	99.9976	200.002
14.36	100.001	99.9976	200.002
14.3625	100.001	99.9976	200.002
14.365	100.001	99.9976	200.002
14.3675	100.001	99.9976	200.002
14.37	100.001	99.9976	200.001
14.3725	100.001	99.9976	200.001
14.375	100.001	99.9976	200.001
14.3775	100.001	99.9976	200.001
14.38	100.001	99.9976	200.001
14.3825	100.001	99.9976	200.001
14.385	100.001	99.9976	200.001
14.3875	100.001	99.9976	200.001
14.39	100.001	99.9976	200.001
14.3925	100.001	99.9976	200.001
14.395	100.001	99.9976	200.001
14.3975	100.001	99.9976	200.001
14.4	100.001	99.9976	200.001
14.4025	100.001	99.9976	200.001
14.405	100.001	99.9976	200.001
14.4075	100.001	99.9976	200.001
14.41	100.001	99.9976	200.001
14.4125	100.001	99.9976	200.001
14.415	100.001	99.9976	200.001
14.4175	100.001	99.9976	200.001
14.42	100.001	99.9976	200.001
14.4225	100.001	99.9976	200.001
14.425	100.001	99.9976	200.001
14.4275	100.001	99.9976	200.001
14.43	100.001	99.9976	200.001
14.4325	100.001	99.9976	200.001
14.435	100.001	99.9976	200.001
14.4375	100.001	99.9976	200.001
14.44	100.001	99.9976	200.001
14.4425	100.001	99.9977	200.001
14.445	100.001	99.9977	200.001
14.4475	100.001	99.9977	200.001
14.45	100.001	99.9977	200.001
14.4525	100.001	99.9977	200.001
14.455	100.001	99.9977	200.001
14.4575	100.001	99.9977	200.001
14.46	100.001	99.9977	200.001
14.4625	100.001	99.9977	200.001
14.465	100.001	99.9977	200.001
14.4675	100.001	99.9977	200.001
14.47	100.001	99.9977	200.001
14.4725	100.001	99.9977	200.001
14.475	100.001	99.9977	200.001
14.4775	100.001	99.9977	200.001
14.48	100.001	99.9977	200.001
14.4825	100.001	99.9977	200.001
14.485	100.001	99.9977	200.001
14.4875	100.001	99.9977	200.001
14.49	100.001	99.9977	200.001
14.4925	100.001	99.9977	200.001
14.495	100.001	99.9977	200.001
14.4975	100.001	99.9977	200.001
14.5	100.001	99.9977	200.001
14.5025	100.001	99.9977	200.001
14.505	100.001	99.9977	200.001
14.5075	100.001	99.9977	200.001
14.51	100.001	99.9977	200.001
14.5125	100.001	99.9977	200.001
14.515	100.001	99.9977	200.001
14.5175	100.001	99.9977	200.001
14.52	100.001	99.9977	200.001
14.5225	100.001	99.9977	200.001
14.525	100.001	99.9977	200.001
14.5275	100.001	99.9977	200.001
14.53	100.001	99.9978	200.001
14.5325	100.001	99.9978	200.001
14.535	100.001	99.9978	200.001
14.5375	100.001	99.9978	200.001
14.54	100.001	99.9978	200.001
14.5425	100.001	99.9978	200.001
14.545	100.001	99.9978	200.001
14.5475	100.001	99.9978	200.001
14.55	100.001	99.9978	200.001
14.5525	100.001	99.9978	200.001
14.555	100.001	99.9978	200.001
14.5575	100.001	99.9978	200.001
14.56	100.001	99.9978	200.001
14.5625	100.001	99.9978	200.001
14.565	100.001	99.9978	200.001
14.5675	100.001	99.9978	200.001
14.57	100.001	99.9978	200.001
14.5725	100.001	99.9978	200.001
14.575	100.001	99.9978	200.001
14.5775	100.001	99.9978	200.001
14.58	100.001	99.9978	200.001
14.5825	100.001	99.9978	200.001
14.585	100.001	99.9978	200.001
14.5875	100.001	99.9978	200.001
14.59	100.001	99.9978	200.001
14.5925	100.001	99.9978	200.001
14.595	100.001	99.9978	200.001
14.5975	100.001	99.9978	200.001
14.6	100.001	99.9978	200.001
14.6025	100.001	99.9978	200.001
14.605	100.001	99.9978	200.001
14.6075	100.001	99.9979	200.001
14.61	100.001	99.9979	200.001
14.6125	100.001	99.9979	200.001
14.615	100.001	99.9979	200.001
14.6175	100.001	99.9979	200.001
14.62	100.001	99.9979	200.001
14.6225	100.001	99.9979	200.001
14.625	100.001	99.9979	200.001
14.6275	100.001	99.9979	200.001
14.63	100.001	99.9979	200.001
14.6325	100.001	99.9979	200.001
14.635	100.001	99.9979	200.001
14.6375	100.001	99.9979	200.001
14.64	100.001	99.9979	200.001
14.6425	100.001	99.9979	200.001
14.645	100.001	99.9979	200.001
14.6475	100.001	99.9979	200.001
14.65	100.001	99.9979	200.001
14.6525	100.001	99.9979	200.001
14.655	100.001	99.9979	200.001
14.6575	100.001	99.9979	200.001
14.66	100.001	99.9979	200.001
14.6625	100.001	99.9979	200.001
14.665	100.001	99.9979	200.001
14.6675	100.001	99.9979	200.001
14.67	100.001	99.9979	200.001
14.6725	100.001	99.9979	200.001
14.675	100.001	99.9979	200.001
14.6775	100.001	99.9979	200.001
14.68	100.001	99.9979	200.001
14.6825	100.001	99.998	200.001
14.685	100.001	99.998	200.001
14.6875	100.001	99.998	200.001
14.69	100.001	99.998	200.001
14.6925	100.001	99.998	200.001
14.695	100.001	99.998	200.001
14.6975	100.001	99.998	200.001
14.7	100.001	99.998	200.001
14.7025	100.001	99.998	200.001
14.705	100.001	99.998	200.001
14.7075	100.001	99.998	200.001
14.71	100.001	99.998	200.001
14.7125	100.001	99.998	200.001
14.715	100.001	99.998	200.001
14.7175	100.001	99.998	200.001
14.72	100.001	99.998	200.001
14.7225	100.001	99.998	200.001
14.725	100.001	99.998	200.001
14.7275	100.001	99.998	200.001
14.73	100.001	99.998	200.001
14.7325	100.001	99.998	200.001
14.735	100.001	99.998	200.001
14.7375	100.001	99.998	200.001
14.74	100.001	99.998	200.001
14.7425	100.001	99.998	200
14.745	100.001	99.998	200
14.7475	100.001	99.998	200
14.75	100.001	99.9981	200
14.7525	100.001	99.9981	200
14.755	100.001	99.9981	200
14.7575	100.001	99.9981	200
14.76	100.001	99.9981	200
14.7625	100.001	99.9981	200
14.765	100.001	99.9981	200
14.7675	100.001	99.9981	200
14.77	100.001	99.9981	200
14.7725	100.001	99.9981	200
14.775	100.001	99.9981	200
14.7775	100.001	99.9981	200
14.78	100.001	99.9981	200
14.7825	100.001	99.9981	200
14.785	100.001	99.9981	200
14.7875	100.001	99.9981	200
14.79	100.001	99.9981	200
14.7925	100.001	99.9981	200
14.795	100.001	99.9981	200
14.7975	100.001	99.9981	200
14.8	100.002	99.9981	200
14.8025	100.002	99.9981	200
14.805	100.002	99.9981	200
14.8075	100.002	99.9981	200
14.81	100.002	99.9981	200
14.8125	100.002	99.9981	200
14.815	100.002	99.9981	200
14.8175	100.002	99.9982	200
14.82	100.002	99.9982	200
14.8225	100.002	99.9982	200
14.825	100.002	99.9982	200
14.8275	100.002	99.9982	200
14.83	100.002	99.9982	200
14.8325	100.002	99.9982	200
14.835	100.002	99.9982	200
14.8375	100.002	99.9982	200
14.84	100.002	99.9982	200
14.8425	100.002	99.9982	200
14.845	100.002	99.9982	200
14.8475	100.002	99.9982	200
14.85	100.002	99.9982	200
14.8525	100.002	99.9982	200
14.855	100.002	99.9982	200
14.8575	100.002	99.9982	200
14.86	100.002	99.9982	200
14.8625	100.002	99.9982	200
14.865	100.002	99.9982	200
14.8675	100.002	99.9982	200
14.87	100.002	99.9982	200
14.8725	100.002	99.9982	200
14.875	100.002	99.9982	200
14.8775	100.002	99.9982	200
14.88	100.002	99.9982	200
14.8825	100.002	99.9983	200
14.885	100.002	99.9983	200
14.8875	100.002	99.9983	200
14.89	100.002	99.9983	200
14.8925	100.002	99.9983	200
14.895	100.002	99.9983	200
14.8975	100.002	99.9983	200
14.9	100.002	99.9983	200
14.9025	100.002	99.9983	200
14.905	100.002	99.9983	200
14.9075	100.002	99.9983	200
14.91	100.002	99.9983	200
14.9125	100.002	99.9983	200
14.915	100.002	99.9983	200
14.9175	100.002	99.9983	200
14.92	100.002	99.9983	200
14.9225	100.002	99.9983	200
14.925	100.002	99.9983	200
14.9275	100.002	99.9983	200
14.93	100.002	99.9983	200
14.9325	100.002	99.9983	200
14.935	100.002	99.9983	200
14.9375	100.002	99.9983	200
14.94	100.002	99.9983	200
14.9425	100.002	99.9983	200
14.945	100.002	99.9983	200
14.9475	100.002	99.9984	200
14.95	100.002	99.9984	200
14.9525	100.002	99.9984	200
14.955	100.002	99.9984	200
14.9575	100.002	99.9984	200
14.96	100.002	99.9984	200
14.9625	100.002	99.9984	200
14.965	100.002	99.9984	200
14.9675	100.002	99.9984	200
14.97	100.002	99.9984	200
14.9725	100.002	99.9984	200
14.975	100.002	99.9984	200
14.9775	100.002	99.9984	200
14.98	100.002	99.9984	200
14.9825	100.002	99.9984	200
14.985	100.002	99.9984	200
14.9875	100.002	99.9984	200
14.99	100.002	99.9984	200
14.9925	100.002	99.9984	200
14.995	100.002	99.9984	200
14.9975	100.002	99.9984	200
15	100.002	99.9984	200
