# N = 400
# (S0, I0, R0) = (197.5, 187.5, 15)
# (a, b, c) = (4, 1, 0.5)
# time, S, I, R
0	197.5	187.5	15
0.0025	196.594	187.955	15.4503
0.005	195.691	188.408	15.9012
0.0075	194.791	188.857	16.3526
0.01	193.893	189.303	16.8046
0.0125	192.997	189.746	17.2571
0.015	192.105	190.185	17.7101
0.0175	191.215	190.621	18.1637
0.02	190.328	191.055	18.6178
0.0225	189.443	191.484	19.0725
0.025	188.562	191.911	19.5276
0.0275	187.683	192.334	19.9832
0.03	186.807	192.754	20.4393
0.0325	185.933	193.171	20.8959
0.035	185.063	193.584	21.3529
0.0375	184.196	193.994	21.8104
0.04	183.331	194.401	22.2683
0.0425	182.469	194.804	22.7267
0.045	181.61	195.204	23.1856
0.0475	180.755	195.601	23.6448
0.05	179.902	195.994	24.1044
0.0525	179.052	196.384	24.5645
0.055	178.205	196.77	25.0249
0.0575	177.361	197.153	25.4858
0.06	176.52	197.533	25.947
0.0625	175.683	197.909	26.4086
0.065	174.848	198.281	26.8705
0.0675	174.016	198.651	27.3328
0.07	173.188	199.017	27.7954
0.0725	172.363	199.379	28.2584
0.075	171.54	199.738	28.7217
0.0775	170.721	200.094	29.1853
0.08	169.905	200.446	29.6492
0.0825	169.092	200.794	30.1134
0.085	168.283	201.139	30.5779
0.0875	167.476	201.481	31.0427
0.09	166.673	201.819	31.5077
0.0925	165.873	202.154	31.973
0.095	165.077	202.485	32.4385
0.0975	164.283	202.812	32.9043
0.1	163.493	203.137	33.3703
0.1025	162.706	203.457	33.8366
0.105	161.922	203.775	34.303
0.1075	161.142	204.088	34.7697
0.11	160.365	204.398	35.2365
0.1125	159.591	204.705	35.7036
0.115	158.821	205.008	36.1708
0.1175	158.054	205.308	36.6382
0.12	157.29	205.604	37.1057
0.1225	156.529	205.897	37.5735
0.125	155.772	206.186	38.0413
0.1275	155.019	206.472	38.5093
0.13	154.268	206.754	38.9774
0.1325	153.521	207.033	39.4456
0.135	152.778	207.308	39.9139
0.1375	152.038	207.58	40.3824
0.14	151.301	207.848	40.8509
0.1425	150.567	208.113	41.3195
0.145	149.837	208.375	41.7881
0.1475	149.111	208.633	42.2569
0.15	148.387	208.887	42.7257
0.1525	147.668	209.138	43.1945
0.155	146.951	209.385	43.6634
0.1575	146.238	209.629	44.1323
0.16	145.529	209.87	44.6012
0.1625	144.823	210.107	45.0701
0.165	144.12	210.341	45.539
0.1675	143.421	210.571	46.008
0.17	142.725	210.798	46.4769
0.1725	142.033	211.022	46.9458
0.175	141.344	211.242	47.4146
0.1775	140.658	211.458	47.8834
0.18	139.976	211.671	48.3522
0.1825	139.298	211.881	48.8209
0.185	138.623	212.088	49.2896
0.1875	137.951	212.291	49.7581
0.19	137.283	212.491	50.2266
0.1925	136.618	212.687	50.695
0.195	135.957	212.88	51.1633
0.1975	135.299	213.07	51.6315
0.2	134.644	213.256	52.0996
0.2025	133.993	213.439	52.5675
0.205	133.346	213.619	53.0354
0.2075	132.702	213.795	53.5031
0.21	132.061	213.968	53.9706
0.2125	131.424	214.138	54.438
0.215	130.79	214.305	54.9052
0.2175	130.16	214.468	55.3722
0.22	129.533	214.628	55.8391
0.2225	128.909	214.785	56.3058
0.225	128.289	214.939	56.7723
0.2275	127.672	215.089	57.2385
0.23	127.059	215.236	57.7046
0.2325	126.449	215.38	58.1705
0.235	125.843	215.521	58.6361
0.2375	125.24	215.659	59.1015
0.24	124.64	215.793	59.5666
0.2425	124.044	215.925	60.0315
0.245	123.451	216.053	60.4962
0.2475	122.861	216.178	60.9605
0.25	122.275	216.3	61.4247
0.2525	121.693	216.419	61.8885
0.255	121.113	216.535	62.352
0.2575	120.537	216.647	62.8153
0.26	119.965	216.757	63.2782
0.2625	119.395	216.864	63.7409
0.265	118.829	216.967	64.2032
0.2675	118.267	217.068	64.6652
0.27	117.707	217.166	65.1269
0.2725	117.151	217.26	65.5882
0.275	116.599	217.352	66.0492
0.2775	116.049	217.441	66.5098
0.28	115.503	217.527	66.9701
0.2825	114.961	217.609	67.4301
0.285	114.421	217.689	67.8896
0.2875	113.885	217.766	68.3488
0.29	113.352	217.841	68.8076
0.2925	112.822	217.912	69.266
0.295	112.296	217.98	69.724
0.2975	111.773	218.046	70.1815
0.3	111.253	218.109	70.6387
0.3025	110.736	218.169	71.0955
0.305	110.222	218.226	71.5518
0.3075	109.712	218.28	72.0077
0.31	109.205	218.332	72.4632
0.3125	108.701	218.381	72.9182
0.315	108.2	218.427	73.3728
0.3175	107.703	218.47	73.8269
0.32	107.209	218.511	74.2806
0.3225	106.717	218.549	74.7338
0.325	106.229	218.584	75.1865
0.3275	105.744	218.617	75.6388
0.33	105.262	218.647	76.0905
0.3325	104.784	218.674	76.5418
0.335	104.308	218.699	76.9925
0.3375	103.836	218.722	77.4428
0.34	103.366	218.741	77.8925
0.3425	102.9	218.758	78.3418
0.345	102.437	218.773	78.7905
0.3475	101.976	218.785	79.2386
0.35	101.519	218.795	79.6863
0.3525	101.065	218.802	80.1334
0.355	100.614	218.806	80.58
0.3575	100.166	218.808	81.026
0.36	99.7205	218.808	81.4714
0.3625	99.2783	218.805	81.9163
0.365	98.8392	218.8	82.3607
0.3675	98.4029	218.793	82.8044
0.37	97.9697	218.783	83.2476
0.3725	97.5394	218.77	83.6902
0.375	97.112	218.756	84.1323
0.3775	96.6875	218.739	84.5737
0.38	96.2659	218.72	85.0145
0.3825	95.8473	218.698	85.4547
0.385	95.4315	218.674	85.8944
0.3875	95.0186	218.648	86.3334
0.39	94.6085	218.62	86.7718
0.3925	94.2013	218.589	87.2095
0.395	93.797	218.556	87.6467
0.3975	93.3955	218.521	88.0832
0.4	92.9968	218.484	88.5191
0.4025	92.6008	218.445	88.9543
0.405	92.2077	218.403	89.3889
0.4075	91.8174	218.36	89.8229
0.41	91.4298	218.314	90.2562
0.4125	91.045	218.266	90.6888
0.415	90.6629	218.216	91.1208
0.4175	90.2836	218.164	91.5521
0.42	89.907	218.11	91.9827
0.4225	89.5331	218.054	92.4127
0.425	89.1619	217.996	92.842
0.4275	88.7933	217.936	93.2706
0.43	88.4275	217.874	93.6985
0.4325	88.0643	217.81	94.1257
0.435	87.7037	217.744	94.5522
0.4375	87.3458	217.676	94.978
0.44	86.9905	217.606	95.4031
0.4425	86.6378	217.535	95.8275
0.445	86.2878	217.461	96.2512
0.4475	85.9403	217.386	96.6742
0.45	85.5953	217.308	97.0965
0.4525	85.253	217.229	97.518
0.455	84.9132	217.148	97.9388
0.4575	84.5759	217.065	98.3589
0.46	84.2411	216.981	98.7783
0.4625	83.9089	216.894	99.1969
0.465	83.5792	216.806	99.6147
0.4675	83.2519	216.716	100.032
0.47	82.9271	216.625	100.448
0.4725	82.6048	216.531	100.864
0.475	82.285	216.436	101.279
0.4775	81.9675	216.34	101.693
0.48	81.6526	216.241	102.106
0.4825	81.34	216.141	102.519
0.485	81.0298	216.04	102.931
0.4875	80.722	215.936	103.342
0.49	80.4166	215.831	103.752
0.4925	80.1136	215.725	104.161
0.495	79.8129	215.617	104.57
0.4975	79.5146	215.507	104.978
0.5	79.2185	215.396	105.385
0.5025	78.9248	215.284	105.792
0.505	78.6335	215.169	106.197
0.5075	78.3444	215.054	106.602
0.51	78.0576	214.936	107.006
0.5125	77.773	214.818	107.409
0.515	77.4907	214.698	107.812
0.5175	77.2107	214.576	108.213
0.52	76.9329	214.453	108.614
0.5225	76.6573	214.329	109.014
0.525	76.3839	214.203	109.413
0.5275	76.1127	214.076	109.811
0.53	75.8437	213.947	110.209
0.5325	75.5769	213.818	110.606
0.535	75.3123	213.686	111.001
0.5375	75.0498	213.554	111.396
0.54	74.7894	213.42	111.791
0.5425	74.5312	213.285	112.184
0.545	74.2751	213.148	112.577
0.5475	74.021	213.011	112.968
0.55	73.7691	212.872	113.359
0.5525	73.5193	212.731	113.749
0.555	73.2715	212.59	114.139
0.5575	73.0258	212.447	114.527
0.56	72.7821	212.303	114.914
0.5625	72.5405	212.158	115.301
0.565	72.3009	212.012	115.687
0.5675	72.0632	211.865	116.072
0.57	71.8276	211.716	116.456
0.5725	71.594	211.567	116.839
0.575	71.3624	211.416	117.222
0.5775	71.1327	211.264	117.603
0.58	70.905	211.111	117.984
0.5825	70.6793	210.957	118.364
0.585	70.4554	210.801	118.743
0.5875	70.2335	210.645	119.121
0.59	70.0135	210.488	119.499
0.5925	69.7954	210.33	119.875
0.595	69.5792	210.17	120.25
0.5975	69.3649	210.01	120.625
0.6	69.1524	209.849	120.999
0.6025	68.9418	209.686	121.372
0.605	68.733	209.523	121.744
0.6075	68.5261	209.359	122.115
0.61	68.321	209.194	122.485
0.6125	68.1177	209.027	122.855
0.615	67.9162	208.86	123.223
0.6175	67.7165	208.692	123.591
0.62	67.5186	208.523	123.958
0.6225	67.3224	208.354	124.324
0.625	67.128	208.183	124.689
0.6275	66.9354	208.012	125.053
0.63	66.7445	207.839	125.416
0.6325	66.5553	207.666	125.779
0.635	66.3679	207.492	126.14
0.6375	66.1821	207.317	126.501
0.64	65.9981	207.141	126.861
0.6425	65.8157	206.965	127.219
0.645	65.6351	206.788	127.577
0.6475	65.4561	206.61	127.934
0.65	65.2787	206.431	128.291
0.6525	65.103	206.251	128.646
0.655	64.9289	206.071	129
0.6575	64.7565	205.89	129.354
0.66	64.5857	205.708	129.706
0.6625	64.4165	205.526	130.058
0.665	64.2489	205.342	130.409
0.6675	64.0829	205.159	130.759
0.67	63.9184	204.974	131.108
0.6725	63.7555	204.789	131.456
0.675	63.5942	204.603	131.803
0.6775	63.4345	204.416	132.149
0.68	63.2763	204.229	132.495
0.6825	63.1196	204.041	132.839
0.685	62.9644	203.853	133.183
0.6875	62.8107	203.664	133.525
0.69	62.6586	203.474	133.867
0.6925	62.5079	203.284	134.208
0.695	62.3588	203.093	134.548
0.6975	62.2111	202.902	134.887
0.7	62.0649	202.71	135.225
0.7025	61.9201	202.517	135.563
0.705	61.7768	202.324	135.899
0.7075	61.6349	202.131	136.235
0.71	61.4944	201.936	136.569
0.7125	61.3554	201.742	136.903
0.715	61.2178	201.547	137.236
0.7175	61.0816	201.351	137.568
0.72	60.9468	201.155	137.898
0.7225	60.8133	200.958	138.229
0.725	60.6813	200.761	138.558
0.7275	60.5506	200.563	138.886
0.73	60.4213	200.365	139.213
0.7325	60.2933	200.167	139.54
0.735	60.1667	199.968	139.865
0.7375	60.0414	199.769	140.19
0.74	59.9175	199.569	140.514
0.7425	59.7948	199.369	140.836
0.745	59.6735	199.168	141.158
0.7475	59.5535	198.967	141.479
0.75	59.4347	198.766	141.8
0.7525	59.3173	198.564	142.119
0.755	59.2011	198.362	142.437
0.7575	59.0862	198.159	142.754
0.76	58.9726	197.956	143.071
0.7625	58.8602	197.753	143.387
0.765	58.7491	197.55	143.701
0.7675	58.6392	197.346	144.015
0.77	58.5305	197.142	144.328
0.7725	58.423	196.937	144.64
0.775	58.3168	196.732	144.951
0.7775	58.2118	196.527	145.261
0.78	58.1079	196.322	145.571
0.7825	58.0053	196.116	145.879
0.785	57.9039	195.91	146.186
0.7875	57.8036	195.703	146.493
0.79	57.7045	195.497	146.799
0.7925	57.6065	195.29	147.103
0.795	57.5097	195.083	147.407
0.7975	57.4141	194.876	147.71
0.8	57.3196	194.668	148.012
0.8025	57.2262	194.46	148.314
0.805	57.134	194.252	148.614
0.8075	57.0428	194.044	148.913
0.81	56.9528	193.835	149.212
0.8125	56.8639	193.627	149.51
0.815	56.776	193.418	149.806
0.8175	56.6893	193.209	150.102
0.82	56.6037	192.999	150.397
0.8225	56.5191	192.79	150.691
0.825	56.4356	192.58	150.984
0.8275	56.3531	192.37	151.277
0.83	56.2717	192.16	151.568
0.8325	56.1914	191.95	151.858
0.835	56.1121	191.74	152.148
0.8375	56.0338	191.529	152.437
0.84	55.9566	191.319	152.725
0.8425	55.8803	191.108	153.012
0.845	55.8051	190.897	153.298
0.8475	55.7309	190.686	153.583
0.85	55.6577	190.475	153.867
0.8525	55.5855	190.264	154.151
0.855	55.5143	190.053	154.433
0.8575	55.4441	189.841	154.715
0.86	55.3748	189.63	154.995
0.8625	55.3065	189.418	155.275
0.865	55.2392	189.206	155.554
0.8675	55.1728	188.995	155.833
0.87	55.1074	188.783	156.11
0.8725	55.0429	188.571	156.386
0.875	54.9794	188.359	156.662
0.8775	54.9168	188.147	156.936
0.88	54.8551	187.935	157.21
0.8825	54.7944	187.723	157.483
0.885	54.7345	187.511	157.755
0.8875	54.6756	187.298	158.026
0.89	54.6176	187.086	158.296
0.8925	54.5604	186.874	158.566
0.895	54.5042	186.661	158.834
0.8975	54.4488	186.449	159.102
0.9	54.3943	186.237	159.369
0.9025	54.3407	186.024	159.635
0.905	54.288	185.812	159.9
0.9075	54.2361	185.6	160.164
0.91	54.1851	185.387	160.427
0.9125	54.1349	185.175	160.69
0.915	54.0856	184.963	160.952
0.9175	54.0371	184.751	161.212
0.92	53.9895	184.538	161.472
0.9225	53.9426	184.326	161.731
0.925	53.8966	184.114	161.99
0.9275	53.8515	183.902	162.247
0.93	53.8071	183.689	162.504
0.9325	53.7635	183.477	162.759
0.935	53.7208	183.265	163.014
0.9375	53.6788	183.053	163.268
0.94	53.6376	182.841	163.521
0.9425	53.5972	182.629	163.773
0.945	53.5576	182.418	164.025
0.9475	53.5188	182.206	164.275
0.95	53.4808	181.994	164.525
0.9525	53.4435	181.782	164.774
0.955	53.4069	181.571	165.022
0.9575	53.3712	181.359	165.269
0.96	53.3361	181.148	165.516
0.9625	53.3019	180.937	165.761
0.965	53.2683	180.726	166.006
0.9675	53.2355	180.515	166.25
0.97	53.2035	180.304	166.493
0.9725	53.1721	180.093	166.735
0.975	53.1415	179.882	166.977
0.9775	53.1116	179.671	167.217
0.98	53.0824	179.461	167.457
0.9825	53.0539	179.25	167.696
0.985	53.0262	179.04	167.934
0.9875	52.9991	178.83	168.171
0.99	52.9727	178.62	168.408
0.9925	52.947	178.41	168.643
0.995	52.922	178.2	168.878
0.9975	52.8977	177.99	169.112
1	52.874	177.781	169.345
1.0025	52.851	177.571	169.578
1.005	52.8287	177.362	169.809
1.0075	52.8071	177.153	170.04
1.01	52.7861	176.944	170.27
1.0125	52.7657	176.735	170.499
1.015	52.746	176.527	170.727
1.0175	52.727	176.318	170.955
1.02	52.7086	176.11	171.181
1.0225	52.6908	175.902	171.407
1.025	52.6737	175.694	171.632
1.0275	52.6572	175.486	171.857
1.03	52.6413	175.278	172.08
1.0325	52.626	175.071	172.303
1.035	52.6114	174.864	172.525
1.0375	52.5974	174.657	172.746
1.04	52.5839	174.45	172.966
1.0425	52.5711	174.243	173.186
1.045	52.5589	174.037	173.405
1.0475	52.5473	173.83	173.622
1.05	52.5362	173.624	173.84
1.0525	52.5258	173.418	174.056
1.055	52.5159	173.213	174.272
1.0575	52.5066	173.007	174.486
1.06	52.4979	172.802	174.7
1.0625	52.4898	172.597	174.914
1.065	52.4822	172.392	175.126
1.0675	52.4752	172.187	175.338
1.07	52.4688	171.983	175.549
1.0725	52.4629	171.778	175.759
1.075	52.4576	171.574	175.968
1.0775	52.4528	171.37	176.177
1.08	52.4486	171.167	176.385
1.0825	52.4449	170.963	176.592
1.085	52.4418	170.76	176.798
1.0875	52.4392	170.557	177.003
1.09	52.4371	170.355	177.208
1.0925	52.4355	170.152	177.412
1.095	52.4345	169.95	177.615
1.0975	52.434	169.748	177.818
1.1	52.434	169.546	178.02
1.1025	52.4346	169.345	178.221
1.105	52.4356	169.144	178.421
1.1075	52.4372	168.943	178.62
1.11	52.4392	168.742	178.819
1.1125	52.4418	168.541	179.017
1.115	52.4448	168.341	179.214
1.1175	52.4484	168.141	179.411
1.12	52.4524	167.941	179.606
1.1225	52.457	167.742	179.801
1.125	52.462	167.543	179.996
1.1275	52.4675	167.344	180.189
1.13	52.4734	167.145	180.382
1.1325	52.4799	166.946	180.574
1.135	52.4868	166.748	180.765
1.1375	52.4942	166.55	180.956
1.14	52.502	166.353	181.145
1.1425	52.5104	166.155	181.334
1.145	52.5191	165.958	181.523
1.1475	52.5284	165.761	181.71
1.15	52.5381	165.565	181.897
1.1525	52.5482	165.368	182.084
1.155	52.5588	165.172	182.269
1.1575	52.5698	164.976	182.454
1.16	52.5813	164.781	182.638
1.1625	52.5932	164.586	182.821
1.165	52.6055	164.391	183.004
1.1675	52.6183	164.196	183.186
1.17	52.6315	164.002	183.367
1.1725	52.6451	163.808	183.547
1.175	52.6592	163.614	183.727
1.1775	52.6737	163.42	183.906
1.18	52.6885	163.227	184.084
1.1825	52.7039	163.034	184.262
1.185	52.7196	162.842	184.439
1.1875	52.7357	162.649	184.615
1.19	52.7522	162.457	184.79
1.1925	52.7692	162.266	184.965
1.195	52.7865	162.074	185.139
1.1975	52.8043	161.883	185.313
1.2	52.8224	161.692	185.485
1.2025	52.8409	161.502	185.657
1.205	52.8598	161.311	185.829
1.2075	52.8792	161.121	185.999
1.21	52.8988	160.932	186.169
1.2125	52.9189	160.742	186.339
1.215	52.9394	160.553	186.507
1.2175	52.9602	160.365	186.675
1.22	52.9814	160.176	186.842
1.2225	53.003	159.988	187.009
1.225	53.0249	159.8	187.175
1.2275	53.0473	159.613	187.34
1.23	53.0699	159.426	187.505
1.2325	53.093	159.239	187.668
1.235	53.1164	159.052	187.832
1.2375	53.1402	158.866	187.994
1.24	53.1643	158.68	188.156
1.2425	53.1887	158.494	188.317
1.245	53.2136	158.309	188.478
1.2475	53.2387	158.124	188.637
1.25	53.2642	157.939	188.797
1.2525	53.2901	157.755	188.955
1.255	53.3163	157.571	189.113
1.2575	53.3428	157.387	189.27
1.26	53.3697	157.204	189.427
1.2625	53.3969	157.02	189.583
1.265	53.4244	156.838	189.738
1.2675	53.4523	156.655	189.893
1.27	53.4805	156.473	190.046
1.2725	53.509	156.291	190.2
1.275	53.5378	156.11	190.352
1.2775	53.567	155.929	190.504
1.28	53.5965	155.748	190.656
1.2825	53.6262	155.567	190.807
1.285	53.6564	155.387	190.957
1.2875	53.6868	155.207	191.106
1.29	53.7175	155.028	191.255
1.2925	53.7485	154.848	191.403
1.295	53.7799	154.67	191.551
1.2975	53.8115	154.491	191.698
1.3	53.8434	154.313	191.844
1.3025	53.8757	154.135	191.989
1.305	53.9082	153.957	192.135
1.3075	53.941	153.78	192.279
1.31	53.9741	153.603	192.423
1.3125	54.0075	153.427	192.566
1.315	54.0412	153.25	192.708
1.3175	54.0752	153.074	192.85
1.32	54.1095	152.899	192.992
1.3225	54.144	152.724	193.132
1.325	54.1789	152.549	193.272
1.3275	54.214	152.374	193.412
1.33	54.2494	152.2	193.551
1.3325	54.285	152.026	193.689
1.335	54.3209	151.852	193.827
1.3375	54.3571	151.679	193.964
1.34	54.3936	151.506	194.1
1.3425	54.4303	151.334	194.236
1.345	54.4673	151.161	194.371
1.3475	54.5046	150.989	194.506
1.35	54.5421	150.818	194.64
1.3525	54.5799	150.647	194.773
1.355	54.618	150.476	194.906
1.3575	54.6562	150.305	195.039
1.36	54.6948	150.135	195.17
1.3625	54.7336	149.965	195.301
1.365	54.7726	149.796	195.432
1.3675	54.8119	149.626	195.562
1.37	54.8515	149.458	195.691
1.3725	54.8913	149.289	195.82
1.375	54.9313	149.121	195.948
1.3775	54.9716	148.953	196.075
1.38	55.0121	148.785	196.202
1.3825	55.0528	148.618	196.329
1.385	55.0938	148.451	196.455
1.3875	55.135	148.285	196.58
1.39	55.1765	148.119	196.705
1.3925	55.2181	147.953	196.829
1.395	55.2601	147.788	196.952
1.3975	55.3022	147.622	197.075
1.4	55.3446	147.458	197.198
1.4025	55.3871	147.293	197.32
1.405	55.4299	147.129	197.441
1.4075	55.473	146.965	197.562
1.41	55.5162	146.802	197.682
1.4125	55.5597	146.639	197.802
1.415	55.6034	146.476	197.921
1.4175	55.6473	146.314	198.039
1.42	55.6914	146.152	198.157
1.4225	55.7357	145.99	198.274
1.425	55.7802	145.828	198.391
1.4275	55.8249	145.667	198.508
1.43	55.8699	145.507	198.623
1.4325	55.915	145.346	198.739
1.435	55.9604	145.186	198.853
1.4375	56.0059	145.027	198.967
1.44	56.0517	144.867	199.081
1.4425	56.0976	144.708	199.194
1.445	56.1438	144.55	199.307
1.4475	56.1901	144.391	199.419
1.45	56.2367	144.233	199.53
1.4525	56.2834	144.076	199.641
1.455	56.3303	143.918	199.751
1.4575	56.3774	143.761	199.861
1.46	56.4247	143.605	199.97
1.4625	56.4722	143.449	200.079
1.465	56.5199	143.293	200.187
1.4675	56.5677	143.137	200.295
1.47	56.6158	142.982	200.402
1.4725	56.664	142.827	200.509
1.475	56.7124	142.672	200.615
1.4775	56.7609	142.518	200.721
1.48	56.8097	142.364	200.826
1.4825	56.8586	142.211	200.931
1.485	56.9077	142.057	201.035
1.4875	56.957	141.905	201.138
1.49	57.0065	141.752	201.241
1.4925	57.0561	141.6	201.344
1.495	57.1059	141.448	201.446
1.4975	57.1558	141.297	201.548
1.5	57.2059	141.145	201.649
1.5025	57.2562	140.995	201.749
1.505	57.3067	140.844	201.849
1.5075	57.3573	140.694	201.949
1.51	57.408	140.544	202.048
1.5125	57.459	140.395	202.146
1.515	57.5101	140.245	202.245
1.5175	57.5613	140.097	202.342
1.52	57.6127	139.948	202.439
1.5225	57.6643	139.8	202.536
1.525	57.716	139.652	202.632
1.5275	57.7678	139.505	202.727
1.53	57.8199	139.358	202.823
1.5325	57.872	139.211	202.917
1.535	57.9243	139.064	203.011
1.5375	57.9768	138.918	203.105
1.54	58.0294	138.773	203.198
1.5425	58.0821	138.627	203.291
1.545	58.135	138.482	203.383
1.5475	58.1881	138.337	203.475
1.55	58.2412	138.193	203.566
1.5525	58.2945	138.049	203.657
1.555	58.348	137.905	203.747
1.5575	58.4016	137.761	203.837
1.56	58.4553	137.618	203.926
1.5625	58.5092	137.476	204.015
1.565	58.5632	137.333	204.104
1.5675	58.6173	137.191	204.192
1.57	58.6716	137.049	204.279
1.5725	58.726	136.908	204.366
1.575	58.7805	136.767	204.453
1.5775	58.8351	136.626	204.539
1.58	58.8899	136.486	204.625
1.5825	58.9448	136.345	204.71
1.585	58.9998	136.206	204.794
1.5875	59.055	136.066	204.879
1.59	59.1103	135.927	204.963
1.5925	59.1657	135.788	205.046
1.595	59.2212	135.65	205.129
1.5975	59.2768	135.512	205.211
1.6	59.3326	135.374	205.293
1.6025	59.3885	135.236	205.375
1.605	59.4444	135.099	205.456
1.6075	59.5005	134.963	205.537
1.61	59.5568	134.826	205.617
1.6125	59.6131	134.69	205.697
1.615	59.6695	134.554	205.776
1.6175	59.7261	134.419	205.855
1.62	59.7828	134.283	205.934
1.6225	59.8395	134.149	206.012
1.625	59.8964	134.014	206.09
1.6275	59.9534	133.88	206.167
1.63	60.0105	133.746	206.244
1.6325	60.0677	133.612	206.32
1.635	60.125	133.479	206.396
1.6375	60.1824	133.346	206.471
1.64	60.24	133.214	206.546
1.6425	60.2976	133.081	206.621
1.645	60.3553	132.949	206.695
1.6475	60.4131	132.818	206.769
1.65	60.471	132.687	206.842
1.6525	60.529	132.556	206.915
1.655	60.5871	132.425	206.988
1.6575	60.6453	132.295	207.06
1.66	60.7036	132.165	207.132
1.6625	60.762	132.035	207.203
1.665	60.8205	131.906	207.274
1.6675	60.8791	131.777	207.344
1.67	60.9377	131.648	207.414
1.6725	60.9965	131.519	207.484
1.675	61.0553	131.391	207.553
1.6775	61.1143	131.264	207.622
1.68	61.1733	131.136	207.691
1.6825	61.2324	131.009	207.759
1.685	61.2916	130.882	207.826
1.6875	61.3509	130.756	207.893
1.69	61.4102	130.63	207.96
1.6925	61.4697	130.504	208.027
1.695	61.5292	130.378	208.093
1.6975	61.5888	130.253	208.158
1.7	61.6485	130.128	208.224
1.7025	61.7082	130.003	208.288
1.705	61.7681	129.879	208.353
1.7075	61.828	129.755	208.417
1.71	61.888	129.631	208.481
1.7125	61.9481	129.508	208.544
1.715	62.0082	129.385	208.607
1.7175	62.0684	129.262	208.669
1.72	62.1287	129.14	208.731
1.7225	62.1891	129.018	208.793
1.725	62.2495	128.896	208.855
1.7275	62.3101	128.774	208.915
1.73	62.3706	128.653	208.976
1.7325	62.4313	128.532	209.036
1.735	62.492	128.412	209.096
1.7375	62.5528	128.292	209.156
1.74	62.6136	128.172	209.215
1.7425	62.6746	128.052	209.273
1.745	62.7355	127.933	209.332
1.7475	62.7966	127.814	209.39
1.75	62.8577	127.695	209.447
1.7525	62.9189	127.576	209.505
1.755	62.9801	127.458	209.562
1.7575	63.0414	127.341	209.618
1.76	63.1028	127.223	209.674
1.7625	63.1642	127.106	209.73
1.765	63.2257	126.989	209.785
1.7675	63.2872	126.872	209.84
1.77	63.3488	126.756	209.895
1.7725	63.4105	126.64	209.949
1.775	63.4722	126.524	210.003
1.7775	63.5339	126.409	210.057
1.78	63.5957	126.294	210.11
1.7825	63.6576	126.179	210.163
1.785	63.7195	126.065	210.216
1.7875	63.7815	125.95	210.268
1.79	63.8435	125.837	210.32
1.7925	63.9056	125.723	210.371
1.795	63.9678	125.61	210.423
1.7975	64.0299	125.497	210.473
1.8	64.0922	125.384	210.524
1.8025	64.1544	125.271	210.574
1.805	64.2168	125.159	210.624
1.8075	64.2791	125.048	210.673
1.81	64.3415	124.936	210.722
1.8125	64.404	124.825	210.771
1.815	64.4665	124.714	210.82
1.8175	64.5291	124.603	210.868
1.82	64.5917	124.493	210.915
1.8225	64.6543	124.383	210.963
1.825	64.717	124.273	211.01
1.8275	64.7797	124.164	211.057
1.83	64.8424	124.054	211.103
1.8325	64.9052	123.946	211.149
1.835	64.9681	123.837	211.195
1.8375	65.031	123.729	211.24
1.84	65.0939	123.621	211.286
1.8425	65.1568	123.513	211.33
1.845	65.2198	123.405	211.375
1.8475	65.2828	123.298	211.419
1.85	65.3459	123.191	211.463
1.8525	65.409	123.085	211.506
1.855	65.4721	122.978	211.549
1.8575	65.5353	122.872	211.592
1.86	65.5985	122.767	211.635
1.8625	65.6617	122.661	211.677
1.865	65.725	122.556	211.719
1.8675	65.7883	122.451	211.76
1.87	65.8516	122.347	211.802
1.8725	65.9149	122.242	211.843
1.875	65.9783	122.138	211.883
1.8775	66.0417	122.035	211.924
1.88	66.1051	121.931	211.964
1.8825	66.1686	121.828	212.003
1.885	66.2321	121.725	212.043
1.8875	66.2956	121.622	212.082
1.89	66.3591	121.52	212.121
1.8925	66.4227	121.418	212.159
1.895	66.4863	121.316	212.197
1.8975	66.5499	121.215	212.235
1.9	66.6135	121.114	212.273
1.9025	66.6772	121.013	212.31
1.905	66.7409	120.912	212.347
1.9075	66.8046	120.812	212.384
1.91	66.8683	120.711	212.42
1.9125	66.932	120.612	212.456
1.915	66.9958	120.512	212.492
1.9175	67.0596	120.413	212.528
1.92	67.1234	120.314	212.563
1.9225	67.1872	120.215	212.598
1.925	67.251	120.116	212.633
1.9275	67.3149	120.018	212.667
1.93	67.3787	119.92	212.701
1.9325	67.4426	119.823	212.735
1.935	67.5065	119.725	212.768
1.9375	67.5704	119.628	212.801
1.94	67.6344	119.531	212.834
1.9425	67.6983	119.435	212.867
1.945	67.7623	119.338	212.899
1.9475	67.8262	119.242	212.931
1.95	67.8902	119.147	212.963
1.9525	67.9542	119.051	212.995
1.955	68.0182	118.956	213.026
1.9575	68.0822	118.861	213.057
1.96	68.1462	118.766	213.088
1.9625	68.2102	118.672	213.118
1.965	68.2743	118.577	213.148
1.9675	68.3383	118.484	213.178
1.97	68.4024	118.39	213.208
1.9725	68.4664	118.297	213.237
1.975	68.5305	118.203	213.266
1.9775	68.5946	118.111	213.295
1.98	68.6586	118.018	213.323
1.9825	68.7227	117.926	213.352
1.985	68.7868	117.833	213.38
1.9875	68.8509	117.742	213.407
1.99	68.915	117.65	213.435
1.9925	68.9791	117.559	213.462
1.995	69.0432	117.468	213.489
1.9975	69.1073	117.377	213.516
2	69.1714	117.286	213.542
2.0025	69.2355	117.196	213.568
2.005	69.2996	117.106	213.594
2.0075	69.3637	117.016	213.62
2.01	69.4278	116.927	213.645
2.0125	69.492	116.838	213.67
2.015	69.5561	116.749	213.695
2.0175	69.6202	116.66	213.72
2.02	69.6843	116.572	213.744
2.0225	69.7484	116.483	213.768
2.025	69.8125	116.395	213.792
2.0275	69.8765	116.308	213.816
2.03	69.9406	116.22	213.839
2.0325	70.0047	116.133	213.862
2.035	70.0688	116.046	213.885
2.0375	70.1329	115.959	213.908
2.04	70.1969	115.873	213.93
2.0425	70.261	115.787	213.952
2.045	70.3251	115.701	213.974
2.0475	70.3891	115.615	213.996
2.05	70.4531	115.529	214.017
2.0525	70.5172	115.444	214.039
2.055	70.5812	115.359	214.06
2.0575	70.6452	115.275	214.08
2.06	70.7092	115.19	214.101
2.0625	70.7732	115.106	214.121
2.065	70.8372	115.022	214.141
2.0675	70.9012	114.938	214.161
2.07	70.9651	114.855	214.18
2.0725	71.0291	114.771	214.199
2.075	71.093	114.688	214.219
2.0775	71.157	114.606	214.237
2.08	71.2209	114.523	214.256
2.0825	71.2848	114.441	214.274
2.085	71.3487	114.359	214.293
2.0875	71.4125	114.277	214.31
2.09	71.4764	114.195	214.328
2.0925	71.5403	114.114	214.346
2.095	71.6041	114.033	214.363
2.0975	71.6679	113.952	214.38
2.1	71.7317	113.872	214.397
2.1025	71.7955	113.791	214.413
2.105	71.8592	113.711	214.43
2.1075	71.923	113.631	214.446
2.11	71.9867	113.552	214.462
2.1125	72.0504	113.472	214.477
2.115	72.1141	113.393	214.493
2.1175	72.1778	113.314	214.508
2.12	72.2415	113.235	214.523
2.1225	72.3051	113.157	214.538
2.125	72.3687	113.079	214.553
2.1275	72.4323	113.001	214.567
2.13	72.4959	112.923	214.581
2.1325	72.5594	112.845	214.595
2.135	72.623	112.768	214.609
2.1375	72.6865	112.691	214.622
2.14	72.75	112.614	214.636
2.1425	72.8134	112.538	214.649
2.145	72.8769	112.461	214.662
2.1475	72.9403	112.385	214.675
2.15	73.0037	112.309	214.687
2.1525	73.0671	112.234	214.699
2.155	73.1304	112.158	214.711
2.1575	73.1937	112.083	214.723
2.16	73.257	112.008	214.735
2.1625	73.3203	111.933	214.747
2.165	73.3836	111.859	214.758
2.1675	73.4468	111.784	214.769
2.17	73.51	111.71	214.78
2.1725	73.5731	111.636	214.791
2.175	73.6363	111.563	214.801
2.1775	73.6994	111.489	214.811
2.18	73.7625	111.416	214.821
2.1825	73.8255	111.343	214.831
2.185	73.8886	111.27	214.841
2.1875	73.9515	111.198	214.851
2.19	74.0145	111.125	214.86
2.1925	74.0775	111.053	214.869
2.195	74.1404	110.982	214.878
2.1975	74.2032	110.91	214.887
2.2	74.2661	110.839	214.895
2.2025	74.3289	110.767	214.904
2.205	74.3917	110.696	214.912
2.2075	74.4544	110.626	214.92
2.21	74.5172	110.555	214.928
2.2125	74.5798	110.485	214.935
2.215	74.6425	110.415	214.943
2.2175	74.7051	110.345	214.95
2.22	74.7677	110.275	214.957
2.2225	74.8303	110.206	214.964
2.225	74.8928	110.136	214.971
2.2275	74.9553	110.067	214.977
2.23	75.0177	109.999	214.984
2.2325	75.0801	109.93	214.99
2.235	75.1425	109.862	214.996
2.2375	75.2049	109.793	215.002
2.24	75.2672	109.725	215.007
2.2425	75.3294	109.658	215.013
2.245	75.3917	109.59	215.018
2.2475	75.4539	109.523	215.023
2.25	75.516	109.456	215.028
2.2525	75.5782	109.389	215.033
2.255	75.6403	109.322	215.038
2.2575	75.7023	109.256	215.042
2.26	75.7643	109.189	215.046
2.2625	75.8263	109.123	215.05
2.265	75.8882	109.058	215.054
2.2675	75.9501	108.992	215.058
2.27	76.012	108.926	215.062
2.2725	76.0738	108.861	215.065
2.275	76.1356	108.796	215.068
2.2775	76.1973	108.731	215.071
2.28	76.259	108.667	215.074
2.2825	76.3206	108.602	215.077
2.285	76.3822	108.538	215.079
2.2875	76.4438	108.474	215.082
2.29	76.5053	108.41	215.084
2.2925	76.5668	108.347	215.086
2.295	76.6283	108.284	215.088
2.2975	76.6897	108.22	215.09
2.3	76.751	108.157	215.092
2.3025	76.8123	108.095	215.093
2.305	76.8736	108.032	215.094
2.3075	76.9348	107.97	215.095
2.31	76.996	107.908	215.096
2.3125	77.0571	107.846	215.097
2.315	77.1182	107.784	215.098
2.3175	77.1793	107.722	215.098
2.32	77.2403	107.661	215.099
2.3225	77.3012	107.6	215.099
2.325	77.3622	107.539	215.099
2.3275	77.423	107.478	215.099
2.33	77.4838	107.418	215.099
2.3325	77.5446	107.357	215.098
2.335	77.6053	107.297	215.098
2.3375	77.666	107.237	215.097
2.34	77.7266	107.177	215.096
2.3425	77.7872	107.118	215.095
2.345	77.8478	107.058	215.094
2.3475	77.9083	106.999	215.093
2.35	77.9687	106.94	215.091
2.3525	78.0291	106.881	215.09
2.355	78.0894	106.823	215.088
2.3575	78.1497	106.764	215.086
2.36	78.21	106.706	215.084
2.3625	78.2702	106.648	215.082
2.365	78.3303	106.59	215.08
2.3675	78.3904	106.532	215.077
2.37	78.4504	106.475	215.075
2.3725	78.5104	106.418	215.072
2.375	78.5704	106.361	215.069
2.3775	78.6303	106.304	215.066
2.38	78.6901	106.247	215.063
2.3825	78.7499	106.191	215.06
2.385	78.8096	106.134	215.056
2.3875	78.8693	106.078	215.053
2.39	78.9289	106.022	215.049
2.3925	78.9885	105.966	215.045
2.395	79.048	105.911	215.041
2.3975	79.1075	105.855	215.037
2.4	79.1669	105.8	215.033
2.4025	79.2263	105.745	215.028
2.405	79.2856	105.69	215.024
2.4075	79.3449	105.636	215.019
2.41	79.4041	105.581	215.015
2.4125	79.4632	105.527	215.01
2.415	79.5223	105.473	215.005
2.4175	79.5814	105.419	215
2.42	79.6404	105.365	214.994
2.4225	79.6993	105.312	214.989
2.425	79.7582	105.258	214.983
2.4275	79.817	105.205	214.978
2.43	79.8758	105.152	214.972
2.4325	79.9345	105.099	214.966
2.435	79.9931	105.047	214.96
2.4375	80.0517	104.994	214.954
2.44	80.1103	104.942	214.948
2.4425	80.1687	104.89	214.941
2.445	80.2272	104.838	214.935
2.4475	80.2855	104.786	214.928
2.45	80.3438	104.735	214.921
2.4525	80.4021	104.683	214.914
2.455	80.4603	104.632	214.907
2.4575	80.5184	104.581	214.9
2.46	80.5765	104.53	214.893
2.4625	80.6345	104.48	214.886
2.465	80.6925	104.429	214.878
2.4675	80.7504	104.379	214.871
2.47	80.8082	104.329	214.863
2.4725	80.866	104.279	214.855
2.475	80.9237	104.229	214.847
2.4775	80.9814	104.179	214.839
2.48	81.039	104.13	214.831
2.4825	81.0965	104.081	214.823
2.485	81.154	104.032	214.814
2.4875	81.2115	103.983	214.806
2.49	81.2688	103.934	214.797
2.4925	81.3261	103.885	214.789
2.495	81.3834	103.837	214.78
2.4975	81.4405	103.789	214.771
2.5	81.4977	103.741	214.762
2.5025	81.5547	103.693	214.753
2.505	81.6117	103.645	214.743
2.5075	81.6686	103.597	214.734
2.51	81.7255	103.55	214.725
2.5125	81.7823	103.503	214.715
2.515	81.8391	103.456	214.705
2.5175	81.8957	103.409	214.695
2.52	81.9524	103.362	214.686
2.5225	82.0089	103.316	214.676
2.525	82.0654	103.269	214.665
2.5275	82.1218	103.223	214.655
2.53	82.1782	103.177	214.645
2.5325	82.2345	103.131	214.634
2.535	82.2907	103.085	214.624
2.5375	82.3469	103.04	214.613
2.54	82.403	102.994	214.603
2.5425	82.4591	102.949	214.592
2.545	82.5151	102.904	214.581
2.5475	82.571	102.859	214.57
2.55	82.6268	102.814	214.559
2.5525	82.6826	102.77	214.548
2.555	82.7383	102.725	214.536
2.5575	82.794	102.681	214.525
2.56	82.8496	102.637	214.513
2.5625	82.9051	102.593	214.502
2.565	82.9605	102.549	214.49
2.5675	83.0159	102.506	214.478
2.57	83.0713	102.462	214.466
2.5725	83.1265	102.419	214.454
2.575	83.1817	102.376	214.442
2.5775	83.2368	102.333	214.43
2.58	83.2919	102.29	214.418
2.5825	83.3469	102.248	214.406
2.585	83.4018	102.205	214.393
2.5875	83.4567	102.163	214.381
2.59	83.5115	102.121	214.368
2.5925	83.5662	102.079	214.355
2.595	83.6208	102.037	214.343
2.5975	83.6754	101.995	214.33
2.6	83.7299	101.953	214.317
2.6025	83.7844	101.912	214.304
2.605	83.8388	101.871	214.29
2.6075	83.8931	101.83	214.277
2.61	83.9473	101.789	214.264
2.6125	84.0015	101.748	214.251
2.615	84.0556	101.707	214.237
2.6175	84.1096	101.667	214.223
2.62	84.1636	101.627	214.21
2.6225	84.2175	101.586	214.196
2.625	84.2713	101.546	214.182
2.6275	84.3251	101.507	214.168
2.63	84.3788	101.467	214.154
2.6325	84.4324	101.427	214.14
2.635	84.4859	101.388	214.126
2.6375	84.5394	101.349	214.112
2.64	84.5928	101.31	214.098
2.6425	84.6461	101.271	214.083
2.645	84.6994	101.232	214.069
2.6475	84.7526	101.193	214.054
2.65	84.8057	101.155	214.04
2.6525	84.8588	101.116	214.025
2.655	84.9117	101.078	214.01
2.6575	84.9647	101.04	213.995
2.66	85.0175	101.002	213.98
2.6625	85.0703	100.964	213.965
2.665	85.123	100.927	213.95
2.6675	85.1756	100.889	213.935
2.67	85.2281	100.852	213.92
2.6725	85.2806	100.815	213.905
2.675	85.333	100.778	213.889
2.6775	85.3853	100.741	213.874
2.68	85.4376	100.704	213.858
2.6825	85.4898	100.668	213.843
2.685	85.5419	100.631	213.827
2.6875	85.5939	100.595	213.811
2.69	85.6459	100.559	213.795
2.6925	85.6978	100.523	213.779
2.695	85.7496	100.487	213.764
2.6975	85.8014	100.451	213.748
2.7	85.8531	100.416	213.731
2.7025	85.9047	100.38	213.715
2.705	85.9562	100.345	213.699
2.7075	86.0077	100.31	213.683
2.71	86.059	100.275	213.666
2.7125	86.1103	100.24	213.65
2.715	86.1616	100.205	213.633
2.7175	86.2127	100.17	213.617
2.72	86.2638	100.136	213.6
2.7225	86.3148	100.102	213.584
2.725	86.3658	100.067	213.567
2.7275	86.4166	100.033	213.55
2.73	86.4674	99.9995	213.533
2.7325	86.5181	99.9657	213.516
2.735	86.5688	99.9321	213.499
2.7375	86.6193	99.8986	213.482
2.74	86.6698	99.8653	213.465
2.7425	86.7202	99.8321	213.448
2.745	86.7706	99.799	213.43
2.7475	86.8208	99.766	213.413
2.75	86.871	99.7332	213.396
2.7525	86.9211	99.7006	213.378
2.755	86.9711	99.668	213.361
2.7575	87.0211	99.6356	213.343
2.76	87.071	99.6034	213.326
2.7625	87.1208	99.5713	213.308
2.765	87.1705	99.5393	213.29
2.7675	87.2202	99.5074	213.272
2.77	87.2697	99.4757	213.255
2.7725	87.3192	99.4441	213.237
2.775	87.3687	99.4126	213.219
2.7775	87.418	99.3813	213.201
2.78	87.4673	99.3501	213.183
2.7825	87.5165	99.319	213.164
2.785	87.5656	99.2881	213.146
2.7875	87.6146	99.2573	213.128
2.79	87.6636	99.2266	213.11
2.7925	87.7125	99.1961	213.091
2.795	87.7613	99.1657	213.073
2.7975	87.81	99.1354	213.055
2.8	87.8587	99.1053	213.036
2.8025	87.9072	99.0753	213.018
2.805	87.9557	99.0454	212.999
2.8075	88.0042	99.0156	212.98
2.81	88.0525	98.986	212.962
2.8125	88.1008	98.9565	212.943
2.815	88.1489	98.9271	212.924
2.8175	88.1971	98.8979	212.905
2.82	88.2451	98.8687	212.886
2.8225	88.293	98.8398	212.867
2.825	88.3409	98.8109	212.848
2.8275	88.3887	98.7822	212.829
2.83	88.4364	98.7535	212.81
2.8325	88.4841	98.7251	212.791
2.835	88.5316	98.6967	212.772
2.8375	88.5791	98.6685	212.752
2.84	88.6265	98.6403	212.733
2.8425	88.6738	98.6124	212.714
2.845	88.7211	98.5845	212.694
2.8475	88.7682	98.5568	212.675
2.85	88.8153	98.5292	212.656
2.8525	88.8623	98.5017	212.636
2.855	88.9093	98.4743	212.616
2.8575	88.9561	98.4471	212.597
2.86	89.0029	98.4199	212.577
2.8625	89.0496	98.3929	212.557
2.865	89.0962	98.3661	212.538
2.8675	89.1427	98.3393	212.518
2.87	89.1892	98.3127	212.498
2.8725	89.2355	98.2862	212.478
2.875	89.2818	98.2598	212.458
2.8775	89.328	98.2335	212.438
2.88	89.3742	98.2074	212.418
2.8825	89.4202	98.1813	212.398
2.885	89.4662	98.1554	212.378
2.8875	89.5121	98.1296	212.358
2.89	89.5579	98.104	212.338
2.8925	89.6036	98.0784	212.318
2.895	89.6493	98.053	212.298
2.8975	89.6949	98.0277	212.277
2.9	89.7404	98.0025	212.257
2.9025	89.7858	97.9774	212.237
2.905	89.8311	97.9524	212.216
2.9075	89.8763	97.9276	212.196
2.91	89.9215	97.9029	212.176
2.9125	89.9666	97.8783	212.155
2.915	90.0116	97.8538	212.135
2.9175	90.0565	97.8294	212.114
2.92	90.1014	97.8051	212.093
2.9225	90.1462	97.781	212.073
2.925	90.1908	97.757	212.052
2.9275	90.2355	97.733	212.032
2.93	90.28	97.7092	212.011
2.9325	90.3244	97.6856	211.99
2.935	90.3688	97.662	211.969
2.9375	90.4131	97.6385	211.948
2.94	90.4573	97.6152	211.928
2.9425	90.5014	97.5919	211.907
2.945	90.5454	97.5688	211.886
2.9475	90.5894	97.5458	211.865
2.95	90.6333	97.5229	211.844
2.9525	90.677	97.5001	211.823
2.955	90.7208	97.4775	211.802
2.9575	90.7644	97.4549	211.781
2.96	90.8079	97.4325	211.76
2.9625	90.8514	97.4101	211.738
2.965	90.8948	97.3879	211.717
2.9675	90.9381	97.3658	211.696
2.97	90.9813	97.3438	211.675
2.9725	91.0245	97.3219	211.654
2.975	91.0675	97.3001	211.632
2.9775	91.1105	97.2785	211.611
2.98	91.1534	97.2569	211.59
2.9825	91.1962	97.2354	211.568
2.985	91.2389	97.2141	211.547
2.9875	91.2816	97.1928	211.526
2.99	91.3242	97.1717	211.504
2.9925	91.3666	97.1507	211.483
2.995	91.409	97.1298	211.461
2.9975	91.4514	97.109	211.44
3	91.4936	97.0883	211.418
3.0025	91.5358	97.0677	211.397
3.005	91.5778	97.0472	211.375
3.0075	91.6198	97.0268	211.353
3.01	91.6617	97.0065	211.332
3.0125	91.7036	96.9864	211.31
3.015	91.7453	96.9663	211.288
3.0175	91.787	96.9463	211.267
3.02	91.8286	96.9265	211.245
3.0225	91.8701	96.9067	211.223
3.025	91.9115	96.8871	211.201
3.0275	91.9528	96.8676	211.18
3.03	91.9941	96.8481	211.158
3.0325	92.0352	96.8288	211.136
3.035	92.0763	96.8096	211.114
3.0375	92.1173	96.7904	211.092
3.04	92.1583	96.7714	211.07
3.0425	92.1991	96.7525	211.048
3.045	92.2398	96.7337	211.026
3.0475	92.2805	96.715	211.005
3.05	92.3211	96.6964	210.983
3.0525	92.3616	96.6778	210.961
3.055	92.402	96.6594	210.939
3.0575	92.4424	96.6411	210.916
3.06	92.4827	96.6229	210.894
3.0625	92.5228	96.6048	210.872
3.065	92.5629	96.5868	210.85
3.0675	92.6029	96.5689	210.828
3.07	92.6429	96.5511	210.806
3.0725	92.6827	96.5334	210.784
3.075	92.7225	96.5158	210.762
3.0775	92.7622	96.4982	210.74
3.08	92.8018	96.4808	210.717
3.0825	92.8413	96.4635	210.695
3.085	92.8807	96.4463	210.673
3.0875	92.9201	96.4292	210.651
3.09	92.9593	96.4122	210.629
3.0925	92.9985	96.3953	210.606
3.095	93.0376	96.3784	210.584
3.0975	93.0766	96.3617	210.562
3.1	93.1156	96.3451	210.539
3.1025	93.1544	96.3285	210.517
3.105	93.1932	96.3121	210.495
3.1075	93.2319	96.2958	210.472
3.11	93.2705	96.2795	210.45
3.1125	93.309	96.2634	210.428
3.115	93.3474	96.2473	210.405
3.1175	93.3858	96.2313	210.383
3.12	93.4241	96.2155	210.36
3.1225	93.4622	96.1997	210.338
3.125	93.5003	96.184	210.316
3.1275	93.5384	96.1685	210.293
3.13	93.5763	96.153	210.271
3.1325	93.6142	96.1376	210.248
3.135	93.6519	96.1223	210.226
3.1375	93.6896	96.1071	210.203
3.14	93.7272	96.0919	210.181
3.1425	93.7648	96.0769	210.158
3.145	93.8022	96.062	210.136
3.1475	93.8396	96.0472	210.113
3.15	93.8768	96.0324	210.091
3.1525	93.914	96.0178	210.068
3.155	93.9511	96.0032	210.046
3.1575	93.9882	95.9887	210.023
3.16	94.0251	95.9743	210.001
3.1625	94.062	95.96	209.978
3.165	94.0987	95.9458	209.955
3.1675	94.1354	95.9317	209.933
3.17	94.172	95.9177	209.91
3.1725	94.2086	95.9038	209.888
3.175	94.245	95.8899	209.865
3.1775	94.2814	95.8762	209.842
3.18	94.3176	95.8625	209.82
3.1825	94.3538	95.849	209.797
3.185	94.39	95.8355	209.775
3.1875	94.426	95.8221	209.752
3.19	94.4619	95.8088	209.729
3.1925	94.4978	95.7955	209.707
3.195	94.5336	95.7824	209.684
3.1975	94.5693	95.7694	209.661
3.2	94.6049	95.7564	209.639
3.2025	94.6404	95.7435	209.616
3.205	94.6759	95.7307	209.593
3.2075	94.7112	95.7181	209.571
3.21	94.7465	95.7054	209.548
3.2125	94.7817	95.6929	209.525
3.215	94.8168	95.6805	209.503
3.2175	94.8519	95.6681	209.48
3.22	94.8868	95.6558	209.457
3.2225	94.9217	95.6437	209.435
3.225	94.9565	95.6316	209.412
3.2275	94.9912	95.6195	209.389
3.23	95.0258	95.6076	209.367
3.2325	95.0603	95.5958	209.344
3.235	95.0948	95.584	209.321
3.2375	95.1292	95.5723	209.299
3.24	95.1634	95.5607	209.276
3.2425	95.1977	95.5492	209.253
3.245	95.2318	95.5378	209.23
3.2475	95.2658	95.5264	209.208
3.25	95.2998	95.5152	209.185
3.2525	95.3336	95.504	209.162
3.255	95.3674	95.4929	209.14
3.2575	95.4012	95.4819	209.117
3.26	95.4348	95.4709	209.094
3.2625	95.4683	95.4601	209.072
3.265	95.5018	95.4493	209.049
3.2675	95.5352	95.4386	209.026
3.27	95.5685	95.428	209.004
3.2725	95.6017	95.4175	208.981
3.275	95.6348	95.407	208.958
3.2775	95.6679	95.3966	208.935
3.28	95.7008	95.3863	208.913
3.2825	95.7337	95.3761	208.89
3.285	95.7665	95.366	208.867
3.2875	95.7992	95.356	208.845
3.29	95.8319	95.346	208.822
3.2925	95.8644	95.3361	208.799
3.295	95.8969	95.3263	208.777
3.2975	95.9293	95.3165	208.754
3.3	95.9616	95.3069	208.732
3.3025	95.9938	95.2973	208.709
3.305	96.026	95.2878	208.686
3.3075	96.0581	95.2783	208.664
3.31	96.09	95.269	208.641
3.3125	96.1219	95.2597	208.618
3.315	96.1538	95.2505	208.596
3.3175	96.1855	95.2414	208.573
3.32	96.2171	95.2324	208.55
3.3225	96.2487	95.2234	208.528
3.325	96.2802	95.2145	208.505
3.3275	96.3116	95.2057	208.483
3.33	96.3429	95.1969	208.46
3.3325	96.3742	95.1883	208.438
3.335	96.4054	95.1797	208.415
3.3375	96.4364	95.1712	208.392
3.34	96.4674	95.1627	208.37
3.3425	96.4984	95.1544	208.347
3.345	96.5292	95.1461	208.325
3.3475	96.56	95.1378	208.302
3.35	96.5906	95.1297	208.28
3.3525	96.6212	95.1216	208.257
3.355	96.6517	95.1136	208.235
3.3575	96.6822	95.1057	208.212
3.36	96.7125	95.0979	208.19
3.3625	96.7428	95.0901	208.167
3.365	96.773	95.0824	208.145
3.3675	96.8031	95.0747	208.122
3.37	96.8331	95.0672	208.1
3.3725	96.863	95.0597	208.077
3.375	96.8929	95.0523	208.055
3.3775	96.9227	95.0449	208.032
3.38	96.9524	95.0376	208.01
3.3825	96.982	95.0304	207.988
3.385	97.0115	95.0233	207.965
3.3875	97.041	95.0162	207.943
3.39	97.0704	95.0092	207.92
3.3925	97.0997	95.0023	207.898
3.395	97.1289	94.9955	207.876
3.3975	97.158	94.9887	207.853
3.4	97.1871	94.982	207.831
3.4025	97.216	94.9753	207.809
3.405	97.2449	94.9687	207.786
3.4075	97.2737	94.9622	207.764
3.41	97.3025	94.9558	207.742
3.4125	97.3311	94.9494	207.719
3.415	97.3597	94.9431	207.697
3.4175	97.3882	94.9369	207.675
3.42	97.4166	94.9307	207.653
3.4225	97.4449	94.9246	207.63
3.425	97.4732	94.9186	207.608
3.4275	97.5013	94.9126	207.586
3.43	97.5294	94.9067	207.564
3.4325	97.5574	94.9009	207.542
3.435	97.5854	94.8952	207.519
3.4375	97.6132	94.8895	207.497
3.44	97.641	94.8838	207.475
3.4425	97.6687	94.8783	207.453
3.445	97.6963	94.8728	207.431
3.4475	97.7238	94.8673	207.409
3.45	97.7513	94.862	207.387
3.4525	97.7787	94.8567	207.365
3.455	97.8059	94.8514	207.343
3.4575	97.8332	94.8463	207.321
3.46	97.8603	94.8412	207.299
3.4625	97.8873	94.8361	207.277
3.465	97.9143	94.8311	207.255
3.4675	97.9412	94.8262	207.233
3.47	97.968	94.8214	207.211
3.4725	97.9948	94.8166	207.189
3.475	98.0214	94.8119	207.167
3.4775	98.048	94.8072	207.145
3.48	98.0745	94.8026	207.123
3.4825	98.1009	94.7981	207.101
3.485	98.1273	94.7936	207.079
3.4875	98.1535	94.7892	207.057
3.49	98.1797	94.7849	207.035
3.4925	98.2058	94.7806	207.014
3.495	98.2318	94.7764	206.992
3.4975	98.2578	94.7722	206.97
3.5	98.2837	94.7681	206.948
3.5025	98.3095	94.7641	206.926
3.505	98.3352	94.7601	206.905
3.5075	98.3608	94.7562	206.883
3.51	98.3864	94.7523	206.861
3.5125	98.4118	94.7485	206.84
3.515	98.4372	94.7448	206.818
3.5175	98.4626	94.7411	206.796
3.52	98.4878	94.7375	206.775
3.5225	98.513	94.734	206.753
3.525	98.5381	94.7305	206.731
3.5275	98.5631	94.7271	206.71
3.53	98.588	94.7237	206.688
3.5325	98.6129	94.7204	206.667
3.535	98.6377	94.7171	206.645
3.5375	98.6624	94.7139	206.624
3.54	98.687	94.7108	206.602
3.5425	98.7115	94.7077	206.581
3.545	98.736	94.7047	206.559
3.5475	98.7604	94.7017	206.538
3.55	98.7847	94.6988	206.516
3.5525	98.8089	94.696	206.495
3.555	98.8331	94.6932	206.474
3.5575	98.8572	94.6904	206.452
3.56	98.8812	94.6878	206.431
3.5625	98.9051	94.6851	206.41
3.565	98.929	94.6826	206.388
3.5675	98.9527	94.6801	206.367
3.57	98.9764	94.6776	206.346
3.5725	99.0001	94.6752	206.325
3.575	99.0236	94.6729	206.304
3.5775	99.0471	94.6706	206.282
3.58	99.0705	94.6684	206.261
3.5825	99.0938	94.6662	206.24
3.585	99.117	94.6641	206.219
3.5875	99.1402	94.662	206.198
3.59	99.1633	94.66	206.177
3.5925	99.1863	94.6581	206.156
3.595	99.2092	94.6562	206.135
3.5975	99.2321	94.6543	206.114
3.6	99.2549	94.6525	206.093
3.6025	99.2776	94.6508	206.072
3.605	99.3002	94.6491	206.051
3.6075	99.3228	94.6475	206.03
3.61	99.3453	94.6459	206.009
3.6125	99.3677	94.6444	205.988
3.615	99.39	94.6429	205.967
3.6175	99.4123	94.6415	205.946
3.62	99.4344	94.6401	205.925
3.6225	99.4566	94.6388	205.905
3.625	99.4786	94.6376	205.884
3.6275	99.5005	94.6364	205.863
3.63	99.5224	94.6352	205.842
3.6325	99.5442	94.6341	205.822
3.635	99.566	94.633	205.801
3.6375	99.5876	94.632	205.78
3.64	99.6092	94.6311	205.76
3.6425	99.6307	94.6302	205.739
3.645	99.6522	94.6293	205.719
3.6475	99.6735	94.6285	205.698
3.65	99.6948	94.6278	205.677
3.6525	99.716	94.6271	205.657
3.655	99.7371	94.6265	205.636
3.6575	99.7582	94.6259	205.616
3.66	99.7792	94.6253	205.595
3.6625	99.8001	94.6248	205.575
3.665	99.821	94.6244	205.555
3.6675	99.8417	94.624	205.534
3.67	99.8624	94.6236	205.514
3.6725	99.8831	94.6233	205.494
3.675	99.9036	94.6231	205.473
3.6775	99.9241	94.6229	205.453
3.68	99.9445	94.6227	205.433
3.6825	99.9648	94.6226	205.413
3.685	99.9851	94.6225	205.392
3.6875	100.005	94.6225	205.372
3.69	100.025	94.6226	205.352
3.6925	100.045	94.6226	205.332
3.695	100.065	94.6228	205.312
3.6975	100.085	94.623	205.292
3.7	100.105	94.6232	205.272
3.7025	100.125	94.6235	205.252
3.705	100.144	94.6238	205.232
3.7075	100.164	94.6241	205.212
3.71	100.184	94.6245	205.192
3.7125	100.203	94.625	205.172
3.715	100.222	94.6255	205.152
3.7175	100.242	94.6261	205.132
3.72	100.261	94.6266	205.112
3.7225	100.28	94.6273	205.093
3.725	100.299	94.628	205.073
3.7275	100.318	94.6287	205.053
3.73	100.337	94.6295	205.033
3.7325	100.356	94.6303	205.014
3.735	100.375	94.6312	204.994
3.7375	100.394	94.6321	204.974
3.74	100.412	94.633	204.955
3.7425	100.431	94.634	204.935
3.745	100.45	94.6351	204.915
3.7475	100.468	94.6362	204.896
3.75	100.486	94.6373	204.876
3.7525	100.505	94.6385	204.857
3.755	100.523	94.6397	204.837
3.7575	100.541	94.6409	204.818
3.76	100.559	94.6422	204.799
3.7625	100.577	94.6436	204.779
3.765	100.595	94.645	204.76
3.7675	100.613	94.6464	204.741
3.77	100.631	94.6479	204.721
3.7725	100.649	94.6494	204.702
3.775	100.666	94.6509	204.683
3.7775	100.684	94.6525	204.664
3.78	100.702	94.6542	204.644
3.7825	100.719	94.6559	204.625
3.785	100.736	94.6576	204.606
3.7875	100.754	94.6593	204.587
3.79	100.771	94.6611	204.568
3.7925	100.788	94.663	204.549
3.795	100.805	94.6649	204.53
3.7975	100.822	94.6668	204.511
3.8	100.839	94.6688	204.492
3.8025	100.856	94.6708	204.473
3.805	100.873	94.6728	204.454
3.8075	100.89	94.6749	204.435
3.81	100.907	94.677	204.416
3.8125	100.923	94.6792	204.398
3.815	100.94	94.6814	204.379
3.8175	100.956	94.6836	204.36
3.82	100.973	94.6859	204.341
3.8225	100.989	94.6883	204.323
3.825	101.006	94.6906	204.304
3.8275	101.022	94.693	204.285
3.83	101.038	94.6955	204.267
3.8325	101.054	94.6979	204.248
3.835	101.07	94.7004	204.229
3.8375	101.086	94.703	204.211
3.84	101.102	94.7056	204.192
3.8425	101.118	94.7082	204.174
3.845	101.134	94.7109	204.156
3.8475	101.149	94.7136	204.137
3.85	101.165	94.7163	204.119
3.8525	101.18	94.7191	204.1
3.855	101.196	94.7219	204.082
3.8575	101.211	94.7248	204.064
3.86	101.227	94.7276	204.046
3.8625	101.242	94.7306	204.027
3.865	101.257	94.7335	204.009
3.8675	101.272	94.7365	203.991
3.87	101.288	94.7396	203.973
3.8725	101.303	94.7426	203.955
3.875	101.318	94.7457	203.937
3.8775	101.332	94.7489	203.919
3.88	101.347	94.752	203.901
3.8825	101.362	94.7552	203.883
3.885	101.377	94.7585	203.865
3.8875	101.391	94.7618	203.847
3.89	101.406	94.7651	203.829
3.8925	101.42	94.7684	203.811
3.895	101.435	94.7718	203.793
3.8975	101.449	94.7752	203.775
3.9	101.464	94.7787	203.758
3.9025	101.478	94.7822	203.74
3.905	101.492	94.7857	203.722
3.9075	101.506	94.7892	203.705
3.91	101.52	94.7928	203.687
3.9125	101.534	94.7964	203.669
3.915	101.548	94.8001	203.652
3.9175	101.562	94.8038	203.634
3.92	101.576	94.8075	203.617
3.9225	101.59	94.8113	203.599
3.925	101.603	94.815	203.582
3.9275	101.617	94.8189	203.564
3.93	101.63	94.8227	203.547
3.9325	101.644	94.8266	203.53
3.935	101.657	94.8305	203.512
3.9375	101.671	94.8344	203.495
3.94	101.684	94.8384	203.478
3.9425	101.697	94.8424	203.46
3.945	101.71	94.8465	203.443
3.9475	101.723	94.8505	203.426
3.95	101.736	94.8546	203.409
3.9525	101.749	94.8588	203.392
3.955	101.762	94.8629	203.375
3.9575	101.775	94.8671	203.358
3.96	101.788	94.8714	203.341
3.9625	101.801	94.8756	203.324
3.965	101.813	94.8799	203.307
3.9675	101.826	94.8842	203.29
3.97	101.838	94.8886	203.273
3.9725	101.851	94.8929	203.256
3.975	101.863	94.8973	203.239
3.9775	101.876	94.9018	203.222
3.98	101.888	94.9062	203.206
3.9825	101.9	94.9107	203.189
3.985	101.912	94.9153	203.172
3.9875	101.925	94.9198	203.156
3.99	101.937	94.9244	203.139
3.9925	101.949	94.929	203.122
3.995	101.961	94.9336	203.106
3.9975	101.972	94.9383	203.089
4	101.984	94.943	203.073
4.0025	101.996	94.9477	203.056
4.005	102.008	94.9525	203.04
4.0075	102.019	94.9573	203.024
4.01	102.031	94.9621	203.007
4.0125	102.042	94.9669	202.991
4.015	102.054	94.9718	202.975
4.0175	102.065	94.9767	202.958
4.02	102.076	94.9816	202.942
4.0225	102.088	94.9865	202.926
4.025	102.099	94.9915	202.91
4.0275	102.11	94.9965	202.893
4.03	102.121	95.0015	202.877
4.0325	102.132	95.0066	202.861
4.035	102.143	95.0116	202.845
4.0375	102.154	95.0167	202.829
4.04	102.165	95.0219	202.813
4.0425	102.176	95.027	202.797
4.045	102.186	95.0322	202.781
4.0475	102.197	95.0374	202.766
4.05	102.208	95.0427	202.75
4.0525	102.218	95.0479	202.734
4.055	102.229	95.0532	202.718
4.0575	102.239	95.0585	202.702
4.06	102.25	95.0638	202.687
4.0625	102.26	95.0692	202.671
4.065	102.27	95.0746	202.655
4.0675	102.28	95.08	202.64
4.07	102.291	95.0854	202.624
4.0725	102.301	95.0909	202.609
4.075	102.311	95.0964	202.593
4.0775	102.321	95.1019	202.578
4.08	102.331	95.1074	202.562
4.0825	102.34	95.1129	202.547
4.085	102.35	95.1185	202.531
4.0875	102.36	95.1241	202.516
4.09	102.37	95.1297	202.501
4.0925	102.379	95.1354	202.485
4.095	102.389	95.1411	202.47
4.0975	102.398	95.1468	202.455
4.1	102.408	95.1525	202.44
4.1025	102.417	95.1582	202.425
4.105	102.427	95.164	202.409
4.1075	102.436	95.1698	202.394
4.11	102.445	95.1756	202.379
4.1125	102.454	95.1814	202.364
4.115	102.464	95.1872	202.349
4.1175	102.473	95.1931	202.334
4.12	102.482	95.199	202.319
4.1225	102.491	95.2049	202.304
4.125	102.499	95.2109	202.29
4.1275	102.508	95.2168	202.275
4.13	102.517	95.2228	202.26
4.1325	102.526	95.2288	202.245
4.135	102.535	95.2348	202.231
4.1375	102.543	95.2409	202.216
4.14	102.552	95.247	202.201
4.1425	102.56	95.253	202.187
4.145	102.569	95.2591	202.172
4.1475	102.577	95.2653	202.157
4.15	102.586	95.2714	202.143
4.1525	102.594	95.2776	202.128
4.155	102.602	95.2838	202.114
4.1575	102.61	95.29	202.1
4.16	102.619	95.2962	202.085
4.1625	102.627	95.3025	202.071
4.165	102.635	95.3087	202.057
4.1675	102.643	95.315	202.042
4.17	102.651	95.3213	202.028
4.1725	102.659	95.3277	202.014
4.175	102.666	95.334	202
4.1775	102.674	95.3404	201.985
4.18	102.682	95.3467	201.971
4.1825	102.69	95.3531	201.957
4.185	102.697	95.3596	201.943
4.1875	102.705	95.366	201.929
4.19	102.712	95.3725	201.915
4.1925	102.72	95.3789	201.901
4.195	102.727	95.3854	201.887
4.1975	102.735	95.3919	201.874
4.2	102.742	95.3985	201.86
4.2025	102.749	95.405	201.846
4.205	102.756	95.4116	201.832
4.2075	102.763	95.4182	201.818
4.21	102.771	95.4248	201.805
4.2125	102.778	95.4314	201.791
4.215	102.785	95.438	201.777
4.2175	102.792	95.4447	201.764
4.22	102.799	95.4514	201.75
4.2225	102.805	95.458	201.737
4.225	102.812	95.4647	201.723
4.2275	102.819	95.4715	201.71
4.23	102.826	95.4782	201.696
4.2325	102.832	95.485	201.683
4.235	102.839	95.4917	201.669
4.2375	102.845	95.4985	201.656
4.24	102.852	95.5053	201.643
4.2425	102.858	95.5121	201.629
4.245	102.865	95.519	201.616
4.2475	102.871	95.5258	201.603
4.25	102.877	95.5327	201.59
4.2525	102.884	95.5396	201.577
4.255	102.89	95.5464	201.564
4.2575	102.896	95.5534	201.551
4.26	102.902	95.5603	201.537
4.2625	102.908	95.5672	201.524
4.265	102.914	95.5742	201.512
4.2675	102.92	95.5812	201.499
4.27	102.926	95.5881	201.486
4.2725	102.932	95.5951	201.473
4.275	102.938	95.6022	201.46
4.2775	102.944	95.6092	201.447
4.28	102.949	95.6162	201.434
4.2825	102.955	95.6233	201.422
4.285	102.961	95.6304	201.409
4.2875	102.966	95.6374	201.396
4.29	102.972	95.6445	201.384
4.2925	102.977	95.6517	201.371
4.295	102.983	95.6588	201.358
4.2975	102.988	95.6659	201.346
4.3	102.993	95.6731	201.333
4.3025	102.999	95.6802	201.321
4.305	103.004	95.6874	201.309
4.3075	103.009	95.6946	201.296
4.31	103.014	95.7018	201.284
4.3125	103.02	95.709	201.271
4.315	103.025	95.7163	201.259
4.3175	103.03	95.7235	201.247
4.32	103.035	95.7308	201.235
4.3225	103.04	95.738	201.222
4.325	103.044	95.7453	201.21
4.3275	103.049	95.7526	201.198
4.33	103.054	95.7599	201.186
4.3325	103.059	95.7672	201.174
4.335	103.063	95.7746	201.162
4.3375	103.068	95.7819	201.15
4.34	103.073	95.7893	201.138
4.3425	103.077	95.7966	201.126
4.345	103.082	95.804	201.114
4.3475	103.086	95.8114	201.102
4.35	103.091	95.8188	201.09
4.3525	103.095	95.8262	201.079
4.355	103.1	95.8336	201.067
4.3575	103.104	95.841	201.055
4.36	103.108	95.8485	201.043
4.3625	103.112	95.8559	201.032
4.365	103.116	95.8634	201.02
4.3675	103.121	95.8709	201.009
4.37	103.125	95.8784	200.997
4.3725	103.129	95.8859	200.985
4.375	103.133	95.8934	200.974
4.3775	103.137	95.9009	200.962
4.38	103.141	95.9084	200.951
4.3825	103.144	95.9159	200.94
4.385	103.148	95.9235	200.928
4.3875	103.152	95.931	200.917
4.39	103.156	95.9386	200.906
4.3925	103.159	95.9462	200.894
4.395	103.163	95.9538	200.883
4.3975	103.167	95.9613	200.872
4.4	103.17	95.9689	200.861
4.4025	103.174	95.9766	200.85
4.405	103.177	95.9842	200.839
4.4075	103.181	95.9918	200.827
4.41	103.184	95.9994	200.816
4.4125	103.188	96.0071	200.805
4.415	103.191	96.0147	200.794
4.4175	103.194	96.0224	200.783
4.42	103.197	96.0301	200.773
4.4225	103.201	96.0378	200.762
4.425	103.204	96.0454	200.751
4.4275	103.207	96.0531	200.74
4.43	103.21	96.0609	200.729
4.4325	103.213	96.0686	200.719
4.435	103.216	96.0763	200.708
4.4375	103.219	96.084	200.697
4.44	103.222	96.0917	200.687
4.4425	103.225	96.0995	200.676
4.445	103.227	96.1072	200.665
4.4475	103.23	96.115	200.655
4.45	103.233	96.1228	200.644
4.4525	103.236	96.1305	200.634
4.455	103.238	96.1383	200.623
4.4575	103.241	96.1461	200.613
4.46	103.244	96.1539	200.603
4.4625	103.246	96.1617	200.592
4.465	103.249	96.1695	200.582
4.4675	103.251	96.1773	200.572
4.47	103.254	96.1851	200.561
4.4725	103.256	96.193	200.551
4.475	103.258	96.2008	200.541
4.4775	103.261	96.2086	200.531
4.48	103.263	96.2165	200.521
4.4825	103.265	96.2243	200.511
4.485	103.267	96.2322	200.5
4.4875	103.27	96.2401	200.49
4.49	103.272	96.2479	200.48
4.4925	103.274	96.2558	200.47
4.495	103.276	96.2637	200.461
4.4975	103.278	96.2716	200.451
4.5	103.28	96.2795	200.441
4.5025	103.282	96.2874	200.431
4.505	103.284	96.2953	200.421
4.5075	103.285	96.3032	200.411
4.51	103.287	96.3111	200.402
4.5125	103.289	96.319	200.392
4.515	103.291	96.3269	200.382
4.5175	103.293	96.3348	200.373
4.52	103.294	96.3428	200.363
4.5225	103.296	96.3507	200.353
4.525	103.297	96.3587	200.344
4.5275	103.299	96.3666	200.334
4.53	103.301	96.3746	200.325
4.5325	103.302	96.3825	200.315
4.535	103.304	96.3905	200.306
4.5375	103.305	96.3984	200.297
4.54	103.306	96.4064	200.287
4.5425	103.308	96.4144	200.278
4.545	103.309	96.4223	200.269
4.5475	103.31	96.4303	200.259
4.55	103.312	96.4383	200.25
4.5525	103.313	96.4463	200.241
4.555	103.314	96.4543	200.232
4.5575	103.315	96.4623	200.223
4.56	103.316	96.4703	200.213
4.5625	103.317	96.4783	200.204
4.565	103.318	96.4863	200.195
4.5675	103.319	96.4943	200.186
4.57	103.32	96.5023	200.177
4.5725	103.321	96.5103	200.168
4.575	103.322	96.5183	200.159
4.5775	103.323	96.5263	200.151
4.58	103.324	96.5344	200.142
4.5825	103.325	96.5424	200.133
4.585	103.325	96.5504	200.124
4.5875	103.326	96.5584	200.115
4.59	103.327	96.5665	200.107
4.5925	103.328	96.5745	200.098
4.595	103.328	96.5825	200.089
4.5975	103.329	96.5906	200.081
4.6	103.329	96.5986	200.072
4.6025	103.33	96.6066	200.063
4.605	103.33	96.6147	200.055
4.6075	103.331	96.6227	200.046
4.61	103.331	96.6308	200.038
4.6125	103.332	96.6388	200.029
4.615	103.332	96.6469	200.021
4.6175	103.332	96.6549	200.013
4.62	103.333	96.663	200.004
4.6225	103.333	96.671	199.996
4.625	103.333	96.6791	199.988
4.6275	103.334	96.6872	199.979
4.63	103.334	96.6952	199.971
4.6325	103.334	96.7033	199.963
4.635	103.334	96.7113	199.955
4.6375	103.334	96.7194	199.947
4.64	103.334	96.7275	199.938
4.6425	103.334	96.7355	199.93
4.645	103.334	96.7436	199.922
4.6475	103.334	96.7516	199.914
4.65	103.334	96.7597	199.906
4.6525	103.334	96.7678	199.898
4.655	103.334	96.7758	199.89
4.6575	103.334	96.7839	199.882
4.66	103.333	96.792	199.875
4.6625	103.333	96.8	199.867
4.665	103.333	96.8081	199.859
4.6675	103.333	96.8162	199.851
4.67	103.332	96.8242	199.843
4.6725	103.332	96.8323	199.836
4.675	103.332	96.8404	199.828
4.6775	103.331	96.8484	199.82
4.68	103.331	96.8565	199.813
4.6825	103.33	96.8646	199.805
4.685	103.33	96.8726	199.797
4.6875	103.329	96.8807	199.79
4.69	103.329	96.8888	199.782
4.6925	103.328	96.8968	199.775
4.695	103.328	96.9049	199.767
4.6975	103.327	96.9129	199.76
4.7	103.326	96.921	199.753
4.7025	103.326	96.9291	199.745
4.705	103.325	96.9371	199.738
4.7075	103.324	96.9452	199.731
4.71	103.324	96.9532	199.723
4.7125	103.323	96.9613	199.716
4.715	103.322	96.9693	199.709
4.7175	103.321	96.9774	199.702
4.72	103.32	96.9854	199.694
4.7225	103.319	96.9935	199.687
4.725	103.318	97.0015	199.68
4.7275	103.317	97.0096	199.673
4.73	103.316	97.0176	199.666
4.7325	103.315	97.0257	199.659
4.735	103.314	97.0337	199.652
4.7375	103.313	97.0418	199.645
4.74	103.312	97.0498	199.638
4.7425	103.311	97.0578	199.631
4.745	103.31	97.0659	199.624
4.7475	103.309	97.0739	199.617
4.75	103.307	97.0819	199.611
4.7525	103.306	97.0899	199.604
4.755	103.305	97.098	199.597
4.7575	103.304	97.106	199.59
4.76	103.302	97.114	199.584
4.7625	103.301	97.122	199.577
4.765	103.3	97.13	199.57
4.7675	103.298	97.1381	199.564
4.77	103.297	97.1461	199.557
4.7725	103.295	97.1541	199.551
4.775	103.294	97.1621	199.544
4.7775	103.292	97.1701	199.537
4.78	103.291	97.1781	199.531
4.7825	103.289	97.1861	199.525
4.785	103.288	97.1941	199.518
4.7875	103.286	97.202	199.512
4.79	103.285	97.21	199.505
4.7925	103.283	97.218	199.499
4.795	103.281	97.226	199.493
4.7975	103.28	97.234	199.486
4.8	103.278	97.2419	199.48
4.8025	103.276	97.2499	199.474
4.805	103.274	97.2579	199.468
4.8075	103.273	97.2658	199.462
4.81	103.271	97.2738	199.455
4.8125	103.269	97.2817	199.449
4.815	103.267	97.2897	199.443
4.8175	103.265	97.2976	199.437
4.82	103.263	97.3056	199.431
4.8225	103.261	97.3135	199.425
4.825	103.26	97.3214	199.419
4.8275	103.258	97.3294	199.413
4.83	103.256	97.3373	199.407
4.8325	103.254	97.3452	199.401
4.835	103.251	97.3531	199.395
4.8375	103.249	97.361	199.39
4.84	103.247	97.3689	199.384
4.8425	103.245	97.3768	199.378
4.845	103.243	97.3847	199.372
4.8475	103.241	97.3926	199.366
4.85	103.239	97.4005	199.361
4.8525	103.237	97.4084	199.355
4.855	103.234	97.4163	199.349
4.8575	103.232	97.4242	199.344
4.86	103.23	97.432	199.338
4.8625	103.228	97.4399	199.333
4.865	103.225	97.4478	199.327
4.8675	103.223	97.4556	199.321
4.87	103.221	97.4635	199.316
4.8725	103.218	97.4713	199.31
4.875	103.216	97.4791	199.305
4.8775	103.213	97.487	199.3
4.88	103.211	97.4948	199.294
4.8825	103.209	97.5026	199.289
4.885	103.206	97.5104	199.284
4.8875	103.204	97.5183	199.278
4.89	103.201	97.5261	199.273
4.8925	103.198	97.5339	199.268
4.895	103.196	97.5417	199.262
4.8975	103.193	97.5495	199.257
4.9	103.191	97.5572	199.252
4.9025	103.188	97.565	199.247
4.905	103.185	97.5728	199.242
4.9075	103.183	97.5806	199.237
4.91	103.18	97.5883	199.232
4.9125	103.177	97.5961	199.226
4.915	103.175	97.6038	199.221
4.9175	103.172	97.6116	199.216
4.92	103.169	97.6193	199.211
4.9225	103.166	97.627	199.207
4.925	103.164	97.6348	199.202
4.9275	103.161	97.6425	199.197
4.93	103.158	97.6502	199.192
4.9325	103.155	97.6579	199.187
4.935	103.152	97.6656	199.182
4.9375	103.149	97.6733	199.177
4.94	103.146	97.681	199.173
4.9425	103.144	97.6887	199.168
4.945	103.141	97.6963	199.163
4.9475	103.138	97.704	199.158
4.95	103.135	97.7117	199.154
4.9525	103.132	97.7193	199.149
4.955	103.129	97.727	199.144
4.9575	103.126	97.7346	199.14
4.96	103.123	97.7422	199.135
4.9625	103.119	97.7499	199.131
4.965	103.116	97.7575	199.126
4.9675	103.113	97.7651	199.122
4.97	103.11	97.7727	199.117
4.9725	103.107	97.7803	199.113
4.975	103.104	97.7879	199.108
4.9775	103.101	97.7955	199.104
4.98	103.097	97.8031	199.1
4.9825	103.094	97.8106	199.095
4.985	103.091	97.8182	199.091
4.9875	103.088	97.8257	199.087
4.99	103.084	97.8333	199.082
4.9925	103.081	97.8408	199.078
4.995	103.078	97.8484	199.074
4.9975	103.075	97.8559	199.07
5	103.071	97.8634	199.065
5.0025	103.068	97.8709	199.061
5.005	103.065	97.8784	199.057
5.0075	103.061	97.8859	199.053
5.01	103.058	97.8934	199.049
5.0125	103.054	97.9009	199.045
5.015	103.051	97.9084	199.041
5.0175	103.047	97.9158	199.037
5.02	103.044	97.9233	199.033
5.0225	103.041	97.9307	199.029
5.025	103.037	97.9382	199.025
5.0275	103.033	97.9456	199.021
5.03	103.03	97.953	199.017
5.0325	103.026	97.9604	199.013
5.035	103.023	97.9678	199.009
5.0375	103.019	97.9752	199.005
5.04	103.016	97.9826	199.002
5.0425	103.012	97.99	198.998
5.045	103.009	97.9974	198.994
5.0475	103.005	98.0048	198.99
5.05	103.001	98.0121	198.987
5.0525	102.998	98.0195	198.983
5.055	102.994	98.0268	198.979
5.0575	102.99	98.0341	198.976
5.06	102.987	98.0415	198.972
5.0625	102.983	98.0488	198.968
5.065	102.979	98.0561	198.965
5.0675	102.975	98.0634	198.961
5.07	102.972	98.0707	198.958
5.0725	102.968	98.078	198.954
5.075	102.964	98.0852	198.951
5.0775	102.96	98.0925	198.947
5.08	102.956	98.0997	198.944
5.0825	102.953	98.107	198.94
5.085	102.949	98.1142	198.937
5.0875	102.945	98.1215	198.934
5.09	102.941	98.1287	198.93
5.0925	102.937	98.1359	198.927
5.095	102.933	98.1431	198.924
5.0975	102.929	98.1503	198.92
5.1	102.925	98.1575	198.917
5.1025	102.921	98.1646	198.914
5.105	102.918	98.1718	198.911
5.1075	102.914	98.179	198.907
5.11	102.91	98.1861	198.904
5.1125	102.906	98.1932	198.901
5.115	102.902	98.2004	198.898
5.1175	102.898	98.2075	198.895
5.12	102.894	98.2146	198.892
5.1225	102.89	98.2217	198.889
5.125	102.886	98.2288	198.886
5.1275	102.881	98.2359	198.883
5.13	102.877	98.2429	198.88
5.1325	102.873	98.25	198.877
5.135	102.869	98.2571	198.874
5.1375	102.865	98.2641	198.871
5.14	102.861	98.2711	198.868
5.1425	102.857	98.2782	198.865
5.145	102.853	98.2852	198.862
5.1475	102.849	98.2922	198.859
5.15	102.844	98.2992	198.856
5.1525	102.84	98.3062	198.854
5.155	102.836	98.3131	198.851
5.1575	102.832	98.3201	198.848
5.16	102.828	98.3271	198.845
5.1625	102.823	98.334	198.843
5.165	102.819	98.3409	198.84
5.1675	102.815	98.3479	198.837
5.17	102.811	98.3548	198.834
5.1725	102.806	98.3617	198.832
5.175	102.802	98.3686	198.829
5.1775	102.798	98.3755	198.827
5.18	102.794	98.3823	198.824
5.1825	102.789	98.3892	198.821
5.185	102.785	98.3961	198.819
5.1875	102.781	98.4029	198.816
5.19	102.776	98.4097	198.814
5.1925	102.772	98.4166	198.811
5.195	102.768	98.4234	198.809
5.1975	102.763	98.4302	198.807
5.2	102.759	98.437	198.804
5.2025	102.755	98.4438	198.802
5.205	102.75	98.4505	198.799
5.2075	102.746	98.4573	198.797
5.21	102.741	98.4641	198.795
5.2125	102.737	98.4708	198.792
5.215	102.732	98.4775	198.79
5.2175	102.728	98.4843	198.788
5.22	102.724	98.491	198.785
5.2225	102.719	98.4977	198.783
5.225	102.715	98.5044	198.781
5.2275	102.71	98.511	198.779
5.23	102.706	98.5177	198.777
5.2325	102.701	98.5244	198.774
5.235	102.697	98.531	198.772
5.2375	102.692	98.5377	198.77
5.24	102.688	98.5443	198.768
5.2425	102.683	98.5509	198.766
5.245	102.679	98.5575	198.764
5.2475	102.674	98.5641	198.762
5.25	102.67	98.5707	198.76
5.2525	102.665	98.5773	198.758
5.255	102.66	98.5838	198.756
5.2575	102.656	98.5904	198.754
5.26	102.651	98.5969	198.752
5.2625	102.647	98.6034	198.75
5.265	102.642	98.61	198.748
5.2675	102.637	98.6165	198.746
5.27	102.633	98.623	198.744
5.2725	102.628	98.6295	198.742
5.275	102.624	98.6359	198.74
5.2775	102.619	98.6424	198.739
5.28	102.614	98.6488	198.737
5.2825	102.61	98.6553	198.735
5.285	102.605	98.6617	198.733
5.2875	102.6	98.6681	198.732
5.29	102.596	98.6745	198.73
5.2925	102.591	98.6809	198.728
5.295	102.586	98.6873	198.726
5.2975	102.582	98.6937	198.725
5.3	102.577	98.7001	198.723
5.3025	102.572	98.7064	198.721
5.305	102.567	98.7128	198.72
5.3075	102.563	98.7191	198.718
5.31	102.558	98.7254	198.717
5.3125	102.553	98.7317	198.715
5.315	102.549	98.738	198.713
5.3175	102.544	98.7443	198.712
5.32	102.539	98.7506	198.71
5.3225	102.534	98.7568	198.709
5.325	102.53	98.7631	198.707
5.3275	102.525	98.7693	198.706
5.33	102.52	98.7756	198.704
5.3325	102.515	98.7818	198.703
5.335	102.51	98.788	198.702
5.3375	102.506	98.7942	198.7
5.34	102.501	98.8004	198.699
5.3425	102.496	98.8065	198.697
5.345	102.491	98.8127	198.696
5.3475	102.486	98.8188	198.695
5.35	102.482	98.825	198.693
5.3525	102.477	98.8311	198.692
5.355	102.472	98.8372	198.691
5.3575	102.467	98.8433	198.69
5.36	102.462	98.8494	198.688
5.3625	102.457	98.8555	198.687
5.365	102.452	98.8616	198.686
5.3675	102.448	98.8676	198.685
5.37	102.443	98.8737	198.684
5.3725	102.438	98.8797	198.682
5.375	102.433	98.8857	198.681
5.3775	102.428	98.8917	198.68
5.38	102.423	98.8977	198.679
5.3825	102.418	98.9037	198.678
5.385	102.413	98.9097	198.677
5.3875	102.409	98.9156	198.676
5.39	102.404	98.9216	198.675
5.3925	102.399	98.9275	198.674
5.395	102.394	98.9334	198.673
5.3975	102.389	98.9394	198.672
5.4	102.384	98.9453	198.671
5.4025	102.379	98.9512	198.67
5.405	102.374	98.957	198.669
5.4075	102.369	98.9629	198.668
5.41	102.364	98.9688	198.667
5.4125	102.359	98.9746	198.666
5.415	102.354	98.9804	198.665
5.4175	102.349	98.9863	198.664
5.42	102.345	98.9921	198.663
5.4225	102.34	98.9979	198.663
5.425	102.335	99.0036	198.662
5.4275	102.33	99.0094	198.661
5.43	102.325	99.0152	198.66
5.4325	102.32	99.0209	198.659
5.435	102.315	99.0267	198.659
5.4375	102.31	99.0324	198.658
5.44	102.305	99.0381	198.657
5.4425	102.3	99.0438	198.656
5.445	102.295	99.0495	198.656
5.4475	102.29	99.0552	198.655
5.45	102.285	99.0608	198.654
5.4525	102.28	99.0665	198.654
5.455	102.275	99.0721	198.653
5.4575	102.27	99.0778	198.652
5.46	102.265	99.0834	198.652
5.4625	102.26	99.089	198.651
5.465	102.255	99.0946	198.651
5.4675	102.25	99.1001	198.65
5.47	102.245	99.1057	198.649
5.4725	102.24	99.1113	198.649
5.475	102.235	99.1168	198.648
5.4775	102.23	99.1223	198.648
5.48	102.225	99.1279	198.647
5.4825	102.22	99.1334	198.647
5.485	102.215	99.1389	198.646
5.4875	102.21	99.1443	198.646
5.49	102.205	99.1498	198.646
5.4925	102.2	99.1553	198.645
5.495	102.195	99.1607	198.645
5.4975	102.19	99.1662	198.644
5.5	102.184	99.1716	198.644
5.5025	102.179	99.177	198.644
5.505	102.174	99.1824	198.643
5.5075	102.169	99.1878	198.643
5.51	102.164	99.1931	198.643
5.5125	102.159	99.1985	198.642
5.515	102.154	99.2039	198.642
5.5175	102.149	99.2092	198.642
5.52	102.144	99.2145	198.641
5.5225	102.139	99.2198	198.641
5.525	102.134	99.2251	198.641
5.5275	102.129	99.2304	198.641
5.53	102.124	99.2357	198.64
5.5325	102.119	99.241	198.64
5.535	102.114	99.2462	198.64
5.5375	102.109	99.2514	198.64
5.54	102.104	99.2567	198.64
5.5425	102.099	99.2619	198.64
5.545	102.094	99.2671	198.639
5.5475	102.088	99.2723	198.639
5.55	102.083	99.2774	198.639
5.5525	102.078	99.2826	198.639
5.555	102.073	99.2878	198.639
5.5575	102.068	99.2929	198.639
5.56	102.063	99.298	198.639
5.5625	102.058	99.3031	198.639
5.565	102.053	99.3083	198.639
5.5675	102.048	99.3133	198.639
5.57	102.043	99.3184	198.639
5.5725	102.038	99.3235	198.639
5.575	102.033	99.3285	198.639
5.5775	102.028	99.3336	198.639
5.58	102.023	99.3386	198.639
5.5825	102.017	99.3436	198.639
5.585	102.012	99.3486	198.639
5.5875	102.007	99.3536	198.639
5.59	102.002	99.3586	198.639
5.5925	101.997	99.3636	198.639
5.595	101.992	99.3685	198.639
5.5975	101.987	99.3735	198.639
5.6	101.982	99.3784	198.64
5.6025	101.977	99.3833	198.64
5.605	101.972	99.3882	198.64
5.6075	101.967	99.3931	198.64
5.61	101.962	99.398	198.64
5.6125	101.957	99.4029	198.64
5.615	101.952	99.4077	198.641
5.6175	101.946	99.4126	198.641
5.62	101.941	99.4174	198.641
5.6225	101.936	99.4222	198.641
5.625	101.931	99.427	198.642
5.6275	101.926	99.4318	198.642
5.63	101.921	99.4366	198.642
5.6325	101.916	99.4414	198.643
5.635	101.911	99.4461	198.643
5.6375	101.906	99.4509	198.643
5.64	101.901	99.4556	198.643
5.6425	101.896	99.4603	198.644
5.645	101.891	99.465	198.644
5.6475	101.886	99.4697	198.645
5.65	101.881	99.4744	198.645
5.6525	101.876	99.4791	198.645
5.655	101.871	99.4837	198.646
5.6575	101.866	99.4884	198.646
5.66	101.86	99.493	198.647
5.6625	101.855	99.4976	198.647
5.665	101.85	99.5023	198.647
5.6675	101.845	99.5068	198.648
5.67	101.84	99.5114	198.648
5.6725	101.835	99.516	198.649
5.675	101.83	99.5206	198.649
5.6775	101.825	99.5251	198.65
5.68	101.82	99.5296	198.65
5.6825	101.815	99.5342	198.651
5.685	101.81	99.5387	198.651
5.6875	101.805	99.5432	198.652
5.69	101.8	99.5477	198.652
5.6925	101.795	99.5521	198.653
5.695	101.79	99.5566	198.654
5.6975	101.785	99.561	198.654
5.7	101.78	99.5655	198.655
5.7025	101.775	99.5699	198.655
5.705	101.77	99.5743	198.656
5.7075	101.765	99.5787	198.657
5.71	101.76	99.5831	198.657
5.7125	101.755	99.5875	198.658
5.715	101.75	99.5918	198.658
5.7175	101.745	99.5962	198.659
5.72	101.74	99.6005	198.66
5.7225	101.735	99.6049	198.66
5.725	101.73	99.6092	198.661
5.7275	101.725	99.6135	198.662
5.73	101.72	99.6178	198.663
5.7325	101.715	99.622	198.663
5.735	101.71	99.6263	198.664
5.7375	101.705	99.6306	198.665
5.74	101.7	99.6348	198.666
5.7425	101.695	99.639	198.666
5.745	101.69	99.6432	198.667
5.7475	101.685	99.6474	198.668
5.75	101.68	99.6516	198.669
5.7525	101.675	99.6558	198.669
5.755	101.67	99.66	198.67
5.7575	101.665	99.6641	198.671
5.76	101.66	99.6683	198.672
5.7625	101.655	99.6724	198.673
5.765	101.65	99.6765	198.674
5.7675	101.645	99.6806	198.674
5.77	101.64	99.6847	198.675
5.7725	101.635	99.6888	198.676
5.775	101.63	99.6929	198.677
5.7775	101.625	99.6969	198.678
5.78	101.62	99.701	198.679
5.7825	101.615	99.705	198.68
5.785	101.61	99.709	198.681
5.7875	101.605	99.713	198.682
5.79	101.6	99.717	198.682
5.7925	101.596	99.721	198.683
5.795	101.591	99.725	198.684
5.7975	101.586	99.7289	198.685
5.8	101.581	99.7329	198.686
5.8025	101.576	99.7368	198.687
5.805	101.571	99.7407	198.688
5.8075	101.566	99.7447	198.689
5.81	101.561	99.7486	198.69
5.8125	101.556	99.7524	198.691
5.815	101.551	99.7563	198.692
5.8175	101.546	99.7602	198.693
5.82	101.542	99.764	198.694
5.8225	101.537	99.7679	198.695
5.825	101.532	99.7717	198.696
5.8275	101.527	99.7755	198.698
5.83	101.522	99.7793	198.699
5.8325	101.517	99.7831	198.7
5.835	101.512	99.7869	198.701
5.8375	101.507	99.7907	198.702
5.84	101.503	99.7944	198.703
5.8425	101.498	99.7982	198.704
5.845	101.493	99.8019	198.705
5.8475	101.488	99.8056	198.706
5.85	101.483	99.8093	198.707
5.8525	101.478	99.813	198.709
5.855	101.474	99.8167	198.71
5.8575	101.469	99.8204	198.711
5.86	101.464	99.824	198.712
5.8625	101.459	99.8277	198.713
5.865	101.454	99.8313	198.714
5.8675	101.449	99.8349	198.716
5.87	101.445	99.8385	198.717
5.8725	101.44	99.8421	198.718
5.875	101.435	99.8457	198.719
5.8775	101.43	99.8493	198.72
5.88	101.425	99.8529	198.722
5.8825	101.421	99.8564	198.723
5.885	101.416	99.86	198.724
5.8875	101.411	99.8635	198.725
5.89	101.406	99.867	198.727
5.8925	101.402	99.8705	198.728
5.895	101.397	99.874	198.729
5.8975	101.392	99.8775	198.73
5.9	101.387	99.881	198.732
5.9025	101.383	99.8844	198.733
5.905	101.378	99.8879	198.734
5.9075	101.373	99.8913	198.736
5.91	101.368	99.8947	198.737
5.9125	101.364	99.8981	198.738
5.915	101.359	99.9015	198.74
5.9175	101.354	99.9049	198.741
5.92	101.349	99.9083	198.742
5.9225	101.345	99.9117	198.744
5.925	101.34	99.915	198.745
5.9275	101.335	99.9183	198.746
5.93	101.331	99.9217	198.748
5.9325	101.326	99.925	198.749
5.935	101.321	99.9283	198.75
5.9375	101.317	99.9316	198.752
5.94	101.312	99.9349	198.753
5.9425	101.307	99.9382	198.755
5.945	101.303	99.9414	198.756
5.9475	101.298	99.9447	198.757
5.95	101.293	99.9479	198.759
5.9525	101.289	99.9511	198.76
5.955	101.284	99.9543	198.762
5.9575	101.279	99.9575	198.763
5.96	101.275	99.9607	198.765
5.9625	101.27	99.9639	198.766
5.965	101.265	99.9671	198.768
5.9675	101.261	99.9702	198.769
5.97	101.256	99.9734	198.77
5.9725	101.252	99.9765	198.772
5.975	101.247	99.9796	198.773
5.9775	101.242	99.9827	198.775
5.98	101.238	99.9858	198.776
5.9825	101.233	99.9889	198.778
5.985	101.229	99.992	198.779
5.9875	101.224	99.9951	198.781
5.99	101.219	99.9981	198.782
5.9925	101.215	100.001	198.784
5.995	101.21	100.004	198.785
5.9975	101.206	100.007	198.787
6	101.201	100.01	198.789
6.0025	101.197	100.013	198.79
6.005	101.192	100.016	198.792
6.0075	101.188	100.019	198.793
6.01	101.183	100.022	198.795
6.0125	101.179	100.025	198.796
6.015	101.174	100.028	198.798
6.0175	101.17	100.031	198.799
6.02	101.165	100.034	198.801
6.0225	101.161	100.037	198.803
6.025	101.156	100.04	198.804
6.0275	101.152	100.043	198.806
6.03	101.147	100.045	198.807
6.0325	101.143	100.048	198.809
6.035	101.138	100.051	198.811
6.0375	101.134	100.054	198.812
6.04	101.129	100.057	198.814
6.0425	101.125	100.06	198.815
6.045	101.12	100.062	198.817
6.0475	101.116	100.065	198.819
6.05	101.112	100.068	198.82
6.0525	101.107	100.071	198.822
6.055	101.103	100.074	198.824
6.0575	101.098	100.076	198.825
6.06	101.094	100.079	198.827
6.0625	101.089	100.082	198.829
6.065	101.085	100.085	198.83
6.0675	101.081	100.087	198.832
6.07	101.076	100.09	198.834
6.0725	101.072	100.093	198.835
6.075	101.068	100.095	198.837
6.0775	101.063	100.098	198.839
6.08	101.059	100.101	198.84
6.0825	101.055	100.103	198.842
6.085	101.05	100.106	198.844
6.0875	101.046	100.109	198.846
6.09	101.042	100.111	198.847
6.0925	101.037	100.114	198.849
6.095	101.033	100.116	198.851
6.0975	101.029	100.119	198.852
6.1	101.024	100.122	198.854
6.1025	101.02	100.124	198.856
6.105	101.016	100.127	198.858
6.1075	101.011	100.129	198.859
6.11	101.007	100.132	198.861
6.1125	101.003	100.134	198.863
6.115	100.999	100.137	198.865
6.1175	100.994	100.139	198.866
6.12	100.99	100.142	198.868
6.1225	100.986	100.144	198.87
6.125	100.982	100.147	198.872
6.1275	100.977	100.149	198.874
6.13	100.973	100.152	198.875
6.1325	100.969	100.154	198.877
6.135	100.965	100.156	198.879
6.1375	100.961	100.159	198.881
6.14	100.956	100.161	198.883
6.1425	100.952	100.164	198.884
6.145	100.948	100.166	198.886
6.1475	100.944	100.168	198.888
6.15	100.94	100.171	198.89
6.1525	100.935	100.173	198.892
6.155	100.931	100.175	198.893
6.1575	100.927	100.178	198.895
6.16	100.923	100.18	198.897
6.1625	100.919	100.182	198.899
6.165	100.915	100.185	198.901
6.1675	100.911	100.187	198.903
6.17	100.906	100.189	198.904
6.1725	100.902	100.191	198.906
6.175	100.898	100.194	198.908
6.1775	100.894	100.196	198.91
6.18	100.89	100.198	198.912
6.1825	100.886	100.2	198.914
6.185	100.882	100.203	198.915
6.1875	100.878	100.205	198.917
6.19	100.874	100.207	198.919
6.1925	100.87	100.209	198.921
6.195	100.866	100.211	198.923
6.1975	100.862	100.214	198.925
6.2	100.858	100.216	198.927
6.2025	100.854	100.218	198.929
6.205	100.85	100.22	198.93
6.2075	100.846	100.222	198.932
6.21	100.842	100.224	198.934
6.2125	100.838	100.226	198.936
6.215	100.834	100.228	198.938
6.2175	100.83	100.23	198.94
6.22	100.826	100.233	198.942
6.2225	100.822	100.235	198.944
6.225	100.818	100.237	198.946
6.2275	100.814	100.239	198.948
6.23	100.81	100.241	198.949
6.2325	100.806	100.243	198.951
6.235	100.802	100.245	198.953
6.2375	100.798	100.247	198.955
6.24	100.794	100.249	198.957
6.2425	100.79	100.251	198.959
6.245	100.786	100.253	198.961
6.2475	100.782	100.255	198.963
6.25	100.778	100.257	198.965
6.2525	100.775	100.259	198.967
6.255	100.771	100.261	198.969
6.2575	100.767	100.262	198.971
6.26	100.763	100.264	198.973
6.2625	100.759	100.266	198.975
6.265	100.755	100.268	198.977
6.2675	100.751	100.27	198.978
6.27	100.748	100.272	198.98
6.2725	100.744	100.274	198.982
6.275	100.74	100.276	198.984
6.2775	100.736	100.278	198.986
6.28	100.732	100.279	198.988
6.2825	100.729	100.281	198.99
6.285	100.725	100.283	198.992
6.2875	100.721	100.285	198.994
6.29	100.717	100.287	198.996
6.2925	100.713	100.288	198.998
6.295	100.71	100.29	199
6.2975	100.706	100.292	199.002
6.3	100.702	100.294	199.004
6.3025	100.698	100.296	199.006
6.305	100.695	100.297	199.008
6.3075	100.691	100.299	199.01
6.31	100.687	100.301	199.012
6.3125	100.684	100.302	199.014
6.315	100.68	100.304	199.016
6.3175	100.676	100.306	199.018
6.32	100.672	100.308	199.02
6.3225	100.669	100.309	199.022
6.325	100.665	100.311	199.024
6.3275	100.661	100.313	199.026
6.33	100.658	100.314	199.028
6.3325	100.654	100.316	199.03
6.335	100.651	100.318	199.032
6.3375	100.647	100.319	199.034
6.34	100.643	100.321	199.036
6.3425	100.64	100.322	199.038
6.345	100.636	100.324	199.04
6.3475	100.632	100.326	199.042
6.35	100.629	100.327	199.044
6.3525	100.625	100.329	199.046
6.355	100.622	100.33	199.048
6.3575	100.618	100.332	199.05
6.36	100.615	100.333	199.052
6.3625	100.611	100.335	199.054
6.365	100.607	100.336	199.056
6.3675	100.604	100.338	199.058
6.37	100.6	100.339	199.06
6.3725	100.597	100.341	199.062
6.375	100.593	100.342	199.064
6.3775	100.59	100.344	199.066
6.38	100.586	100.345	199.068
6.3825	100.583	100.347	199.07
6.385	100.579	100.348	199.072
6.3875	100.576	100.35	199.074
6.39	100.572	100.351	199.076
6.3925	100.569	100.353	199.078
6.395	100.565	100.354	199.08
6.3975	100.562	100.355	199.082
6.4	100.559	100.357	199.085
6.4025	100.555	100.358	199.087
6.405	100.552	100.36	199.089
6.4075	100.548	100.361	199.091
6.41	100.545	100.362	199.093
6.4125	100.541	100.364	199.095
6.415	100.538	100.365	199.097
6.4175	100.535	100.367	199.099
6.42	100.531	100.368	199.101
6.4225	100.528	100.369	199.103
6.425	100.525	100.37	199.105
6.4275	100.521	100.372	199.107
6.43	100.518	100.373	199.109
6.4325	100.515	100.374	199.111
6.435	100.511	100.376	199.113
6.4375	100.508	100.377	199.115
6.44	100.505	100.378	199.117
6.4425	100.501	100.38	199.119
6.445	100.498	100.381	199.121
6.4475	100.495	100.382	199.123
6.45	100.491	100.383	199.125
6.4525	100.488	100.384	199.127
6.455	100.485	100.386	199.13
6.4575	100.482	100.387	199.132
6.46	100.478	100.388	199.134
6.4625	100.475	100.389	199.136
6.465	100.472	100.39	199.138
6.4675	100.469	100.392	199.14
6.47	100.465	100.393	199.142
6.4725	100.462	100.394	199.144
6.475	100.459	100.395	199.146
6.4775	100.456	100.396	199.148
6.48	100.453	100.397	199.15
6.4825	100.449	100.399	199.152
6.485	100.446	100.4	199.154
6.4875	100.443	100.401	199.156
6.49	100.44	100.402	199.158
6.4925	100.437	100.403	199.16
6.495	100.433	100.404	199.162
6.4975	100.43	100.405	199.164
6.5	100.427	100.406	199.167
6.5025	100.424	100.407	199.169
6.505	100.421	100.408	199.171
6.5075	100.418	100.409	199.173
6.51	100.415	100.411	199.175
6.5125	100.412	100.412	199.177
6.515	100.409	100.413	199.179
6.5175	100.405	100.414	199.181
6.52	100.402	100.415	199.183
6.5225	100.399	100.416	199.185
6.525	100.396	100.417	199.187
6.5275	100.393	100.418	199.189
6.53	100.39	100.419	199.191
6.5325	100.387	100.42	199.193
6.535	100.384	100.421	199.195
6.5375	100.381	100.421	199.197
6.54	100.378	100.422	199.199
6.5425	100.375	100.423	199.201
6.545	100.372	100.424	199.204
6.5475	100.369	100.425	199.206
6.55	100.366	100.426	199.208
6.5525	100.363	100.427	199.21
6.555	100.36	100.428	199.212
6.5575	100.357	100.429	199.214
6.56	100.354	100.43	199.216
6.5625	100.351	100.431	199.218
6.565	100.348	100.432	199.22
6.5675	100.346	100.432	199.222
6.57	100.343	100.433	199.224
6.5725	100.34	100.434	199.226
6.575	100.337	100.435	199.228
6.5775	100.334	100.436	199.23
6.58	100.331	100.437	199.232
6.5825	100.328	100.438	199.234
6.585	100.325	100.438	199.236
6.5875	100.322	100.439	199.238
6.59	100.32	100.44	199.24
6.5925	100.317	100.441	199.243
6.595	100.314	100.442	199.245
6.5975	100.311	100.442	199.247
6.6	100.308	100.443	199.249
6.6025	100.305	100.444	199.251
6.605	100.303	100.445	199.253
6.6075	100.3	100.445	199.255
6.61	100.297	100.446	199.257
6.6125	100.294	100.447	199.259
6.615	100.291	100.448	199.261
6.6175	100.289	100.448	199.263
6.62	100.286	100.449	199.265
6.6225	100.283	100.45	199.267
6.625	100.28	100.45	199.269
6.6275	100.278	100.451	199.271
6.63	100.275	100.452	199.273
6.6325	100.272	100.453	199.275
6.635	100.269	100.453	199.277
6.6375	100.267	100.454	199.279
6.64	100.264	100.455	199.281
6.6425	100.261	100.455	199.283
6.645	100.259	100.456	199.285
6.6475	100.256	100.457	199.287
6.65	100.253	100.457	199.289
6.6525	100.251	100.458	199.292
6.655	100.248	100.458	199.294
6.6575	100.245	100.459	199.296
6.66	100.243	100.46	199.298
6.6625	100.24	100.46	199.3
6.665	100.237	100.461	199.302
6.6675	100.235	100.461	199.304
6.67	100.232	100.462	199.306
6.6725	100.23	100.463	199.308
6.675	100.227	100.463	199.31
6.6775	100.224	100.464	199.312
6.68	100.222	100.464	199.314
6.6825	100.219	100.465	199.316
6.685	100.217	100.465	199.318
6.6875	100.214	100.466	199.32
6.69	100.212	100.467	199.322
6.6925	100.209	100.467	199.324
6.695	100.207	100.468	199.326
6.6975	100.204	100.468	199.328
6.7	100.202	100.469	199.33
6.7025	100.199	100.469	199.332
6.705	100.196	100.47	199.334
6.7075	100.194	100.47	199.336
6.71	100.192	100.471	199.338
6.7125	100.189	100.471	199.34
6.715	100.187	100.472	199.342
6.7175	100.184	100.472	199.344
6.72	100.182	100.472	199.346
6.7225	100.179	100.473	199.348
6.725	100.177	100.473	199.35
6.7275	100.174	100.474	199.352
6.73	100.172	100.474	199.354
6.7325	100.169	100.475	199.356
6.735	100.167	100.475	199.358
6.7375	100.165	100.475	199.36
6.74	100.162	100.476	199.362
6.7425	100.16	100.476	199.364
6.745	100.157	100.477	199.366
6.7475	100.155	100.477	199.368
6.75	100.153	100.477	199.37
6.7525	100.15	100.478	199.372
6.755	100.148	100.478	199.374
6.7575	100.146	100.479	199.376
6.76	100.143	100.479	199.378
6.7625	100.141	100.479	199.38
6.765	100.139	100.48	199.382
6.7675	100.136	100.48	199.384
6.77	100.134	100.48	199.386
6.7725	100.132	100.481	199.388
6.775	100.129	100.481	199.39
6.7775	100.127	100.481	199.392
6.78	100.125	100.482	199.393
6.7825	100.123	100.482	199.395
6.785	100.12	100.482	199.397
6.7875	100.118	100.483	199.399
6.79	100.116	100.483	199.401
6.7925	100.114	100.483	199.403
6.795	100.111	100.483	199.405
6.7975	100.109	100.484	199.407
6.8	100.107	100.484	199.409
6.8025	100.105	100.484	199.411
6.805	100.102	100.485	199.413
6.8075	100.1	100.485	199.415
6.81	100.098	100.485	199.417
6.8125	100.096	100.485	199.419
6.815	100.094	100.486	199.421
6.8175	100.092	100.486	199.423
6.82	100.089	100.486	199.425
6.8225	100.087	100.486	199.427
6.825	100.085	100.486	199.429
6.8275	100.083	100.487	199.43
6.83	100.081	100.487	199.432
6.8325	100.079	100.487	199.434
6.835	100.077	100.487	199.436
6.8375	100.074	100.487	199.438
6.84	100.072	100.488	199.44
6.8425	100.07	100.488	199.442
6.845	100.068	100.488	199.444
6.8475	100.066	100.488	199.446
6.85	100.064	100.488	199.448
6.8525	100.062	100.488	199.45
6.855	100.06	100.489	199.452
6.8575	100.058	100.489	199.453
6.86	100.056	100.489	199.455
6.8625	100.054	100.489	199.457
6.865	100.052	100.489	199.459
6.8675	100.05	100.489	199.461
6.87	100.048	100.489	199.463
6.8725	100.046	100.49	199.465
6.875	100.044	100.49	199.467
6.8775	100.042	100.49	199.469
6.88	100.04	100.49	199.471
6.8825	100.038	100.49	199.472
6.885	100.036	100.49	199.474
6.8875	100.034	100.49	199.476
6.89	100.032	100.49	199.478
6.8925	100.03	100.49	199.48
6.895	100.028	100.49	199.482
6.8975	100.026	100.49	199.484
6.9	100.024	100.49	199.486
6.9025	100.022	100.491	199.487
6.905	100.02	100.491	199.489
6.9075	100.018	100.491	199.491
6.91	100.016	100.491	199.493
6.9125	100.014	100.491	199.495
6.915	100.013	100.491	199.497
6.9175	100.011	100.491	199.499
6.92	100.009	100.491	199.5
6.9225	100.007	100.491	199.502
6.925	100.005	100.491	199.504
6.9275	100.003	100.491	199.506
6.93	100.001	100.491	199.508
6.9325	99.9995	100.491	199.51
6.935	99.9977	100.491	199.511
6.9375	99.9958	100.491	199.513
6.94	99.994	100.491	199.515
6.9425	99.9922	100.491	199.517
6.945	99.9904	100.491	199.519
6.9475	99.9886	100.491	199.521
6.95	99.9868	100.491	199.522
6.9525	99.985	100.491	199.524
6.955	99.9832	100.491	199.526
6.9575	99.9815	100.491	199.528
6.96	99.9797	100.491	199.53
6.9625	99.9779	100.491	199.532
6.965	99.9762	100.49	199.533
6.9675	99.9744	100.49	199.535
6.97	99.9727	100.49	199.537
6.9725	99.971	100.49	199.539
6.975	99.9692	100.49	199.541
6.9775	99.9675	100.49	199.542
6.98	99.9658	100.49	199.544
6.9825	99.9641	100.49	199.546
6.985	99.9624	100.49	199.548
6.9875	99.9607	100.49	199.55
6.99	99.959	100.49	199.551
6.9925	99.9573	100.49	199.553
6.995	99.9557	100.489	199.555
6.9975	99.954	100.489	199.557
7	99.9523	100.489	199.558
7.0025	99.9507	100.489	199.56
7.005	99.949	100.489	199.562
7.0075	99.9474	100.489	199.564
7.01	99.9458	100.489	199.566
7.0125	99.9442	100.489	199.567
7.015	99.9425	100.488	199.569
7.0175	99.9409	100.488	199.571
7.02	99.9393	100.488	199.573
7.0225	99.9377	100.488	199.574
7.025	99.9361	100.488	199.576
7.0275	99.9345	100.488	199.578
7.03	99.933	100.487	199.58
7.0325	99.9314	100.487	199.581
7.035	99.9298	100.487	199.583
7.0375	99.9283	100.487	199.585
7.04	99.9267	100.487	199.587
7.0425	99.9252	100.487	199.588
7.045	99.9236	100.486	199.59
7.0475	99.9221	100.486	199.592
7.05	99.9206	100.486	199.593
7.0525	99.919	100.486	199.595
7.055	99.9175	100.486	199.597
7.0575	99.916	100.485	199.599
7.06	99.9145	100.485	199.6
7.0625	99.913	100.485	199.602
7.065	99.9115	100.485	199.604
7.0675	99.9101	100.485	199.605
7.07	99.9086	100.484	199.607
7.0725	99.9071	100.484	199.609
7.075	99.9057	100.484	199.611
7.0775	99.9042	100.484	199.612
7.08	99.9027	100.483	199.614
7.0825	99.9013	100.483	199.616
7.085	99.8999	100.483	199.617
7.0875	99.8984	100.483	199.619
7.09	99.897	100.482	199.621
7.0925	99.8956	100.482	199.622
7.095	99.8942	100.482	199.624
7.0975	99.8928	100.482	199.626
7.1	99.8914	100.481	199.627
7.1025	99.89	100.481	199.629
7.105	99.8886	100.481	199.631
7.1075	99.8872	100.48	199.632
7.11	99.8858	100.48	199.634
7.1125	99.8845	100.48	199.636
7.115	99.8831	100.48	199.637
7.1175	99.8818	100.479	199.639
7.12	99.8804	100.479	199.641
7.1225	99.8791	100.479	199.642
7.125	99.8777	100.478	199.644
7.1275	99.8764	100.478	199.646
7.13	99.8751	100.478	199.647
7.1325	99.8738	100.477	199.649
7.135	99.8724	100.477	199.65
7.1375	99.8711	100.477	199.652
7.14	99.8698	100.476	199.654
7.1425	99.8685	100.476	199.655
7.145	99.8673	100.476	199.657
7.1475	99.866	100.475	199.659
7.15	99.8647	100.475	199.66
7.1525	99.8634	100.475	199.662
7.155	99.8622	100.474	199.663
7.1575	99.8609	100.474	199.665
7.16	99.8597	100.474	199.667
7.1625	99.8584	100.473	199.668
7.165	99.8572	100.473	199.67
7.1675	99.8559	100.473	199.671
7.17	99.8547	100.472	199.673
7.1725	99.8535	100.472	199.675
7.175	99.8523	100.472	199.676
7.1775	99.8511	100.471	199.678
7.18	99.8499	100.471	199.679
7.1825	99.8487	100.47	199.681
7.185	99.8475	100.47	199.682
7.1875	99.8463	100.47	199.684
7.19	99.8451	100.469	199.686
7.1925	99.8439	100.469	199.687
7.195	99.8428	100.468	199.689
7.1975	99.8416	100.468	199.69
7.2	99.8404	100.468	199.692
7.2025	99.8393	100.467	199.693
7.205	99.8381	100.467	199.695
7.2075	99.837	100.466	199.697
7.21	99.8359	100.466	199.698
7.2125	99.8347	100.466	199.7
7.215	99.8336	100.465	199.701
7.2175	99.8325	100.465	199.703
7.22	99.8314	100.464	199.704
7.2225	99.8303	100.464	199.706
7.225	99.8292	100.464	199.707
7.2275	99.8281	100.463	199.709
7.23	99.827	100.463	199.71
7.2325	99.8259	100.462	199.712
7.235	99.8249	100.462	199.713
7.2375	99.8238	100.461	199.715
7.24	99.8227	100.461	199.716
7.2425	99.8217	100.46	199.718
7.245	99.8206	100.46	199.719
7.2475	99.8196	100.46	199.721
7.25	99.8185	100.459	199.722
7.2525	99.8175	100.459	199.724
7.255	99.8165	100.458	199.725
7.2575	99.8154	100.458	199.727
7.26	99.8144	100.457	199.728
7.2625	99.8134	100.457	199.73
7.265	99.8124	100.456	199.731
7.2675	99.8114	100.456	199.733
7.27	99.8104	100.455	199.734
7.2725	99.8094	100.455	199.736
7.275	99.8084	100.454	199.737
7.2775	99.8074	100.454	199.739
7.28	99.8065	100.453	199.74
7.2825	99.8055	100.453	199.742
7.285	99.8045	100.452	199.743
7.2875	99.8036	100.452	199.744
7.29	99.8026	100.452	199.746
7.2925	99.8017	100.451	199.747
7.295	99.8007	100.451	199.749
7.2975	99.7998	100.45	199.75
7.3	99.7988	100.45	199.752
7.3025	99.7979	100.449	199.753
7.305	99.797	100.448	199.755
7.3075	99.7961	100.448	199.756
7.31	99.7952	100.447	199.757
7.3125	99.7943	100.447	199.759
7.315	99.7934	100.446	199.76
7.3175	99.7925	100.446	199.762
7.32	99.7916	100.445	199.763
7.3225	99.7907	100.445	199.764
7.325	99.7898	100.444	199.766
7.3275	99.7889	100.444	199.767
7.33	99.7881	100.443	199.769
7.3325	99.7872	100.443	199.77
7.335	99.7864	100.442	199.771
7.3375	99.7855	100.442	199.773
7.34	99.7847	100.441	199.774
7.3425	99.7838	100.441	199.776
7.345	99.783	100.44	199.777
7.3475	99.7822	100.44	199.778
7.35	99.7813	100.439	199.78
7.3525	99.7805	100.438	199.781
7.355	99.7797	100.438	199.782
7.3575	99.7789	100.437	199.784
7.36	99.7781	100.437	199.785
7.3625	99.7773	100.436	199.787
7.365	99.7765	100.436	199.788
7.3675	99.7757	100.435	199.789
7.37	99.7749	100.434	199.791
7.3725	99.7741	100.434	199.792
7.375	99.7733	100.433	199.793
7.3775	99.7726	100.433	199.795
7.38	99.7718	100.432	199.796
7.3825	99.771	100.432	199.797
7.385	99.7703	100.431	199.799
7.3875	99.7695	100.43	199.8
7.39	99.7688	100.43	199.801
7.3925	99.7681	100.429	199.803
7.395	99.7673	100.429	199.804
7.3975	99.7666	100.428	199.805
7.4	99.7659	100.428	199.807
7.4025	99.7651	100.427	199.808
7.405	99.7644	100.426	199.809
7.4075	99.7637	100.426	199.81
7.41	99.763	100.425	199.812
7.4125	99.7623	100.425	199.813
7.415	99.7616	100.424	199.814
7.4175	99.7609	100.423	199.816
7.42	99.7602	100.423	199.817
7.4225	99.7596	100.422	199.818
7.425	99.7589	100.422	199.82
7.4275	99.7582	100.421	199.821
7.43	99.7575	100.42	199.822
7.4325	99.7569	100.42	199.823
7.435	99.7562	100.419	199.825
7.4375	99.7556	100.419	199.826
7.44	99.7549	100.418	199.827
7.4425	99.7543	100.417	199.828
7.445	99.7536	100.417	199.83
7.4475	99.753	100.416	199.831
7.45	99.7524	100.415	199.832
7.4525	99.7518	100.415	199.833
7.455	99.7511	100.414	199.835
7.4575	99.7505	100.414	199.836
7.46	99.7499	100.413	199.837
7.4625	99.7493	100.412	199.838
7.465	99.7487	100.412	199.84
7.4675	99.7481	100.411	199.841
7.47	99.7475	100.41	199.842
7.4725	99.7469	100.41	199.843
7.475	99.7463	100.409	199.844
7.4775	99.7458	100.409	199.846
7.48	99.7452	100.408	199.847
7.4825	99.7446	100.407	199.848
7.485	99.7441	100.407	199.849
7.4875	99.7435	100.406	199.851
7.49	99.7429	100.405	199.852
7.4925	99.7424	100.405	199.853
7.495	99.7418	100.404	199.854
7.4975	99.7413	100.403	199.855
7.5	99.7408	100.403	199.856
7.5025	99.7402	100.402	199.858
7.505	99.7397	100.401	199.859
7.5075	99.7392	100.401	199.86
7.51	99.7387	100.4	199.861
7.5125	99.7381	100.399	199.862
7.515	99.7376	100.399	199.864
7.5175	99.7371	100.398	199.865
7.52	99.7366	100.397	199.866
7.5225	99.7361	100.397	199.867
7.525	99.7356	100.396	199.868
7.5275	99.7351	100.396	199.869
7.53	99.7347	100.395	199.871
7.5325	99.7342	100.394	199.872
7.535	99.7337	100.394	199.873
7.5375	99.7332	100.393	199.874
7.54	99.7328	100.392	199.875
7.5425	99.7323	100.391	199.876
7.545	99.7318	100.391	199.877
7.5475	99.7314	100.39	199.878
7.55	99.7309	100.389	199.88
7.5525	99.7305	100.389	199.881
7.555	99.73	100.388	199.882
7.5575	99.7296	100.387	199.883
7.56	99.7292	100.387	199.884
7.5625	99.7287	100.386	199.885
7.565	99.7283	100.385	199.886
7.5675	99.7279	100.385	199.887
7.57	99.7275	100.384	199.888
7.5725	99.7271	100.383	199.89
7.575	99.7266	100.383	199.891
7.5775	99.7262	100.382	199.892
7.58	99.7258	100.381	199.893
7.5825	99.7254	100.381	199.894
7.585	99.725	100.38	199.895
7.5875	99.7247	100.379	199.896
7.59	99.7243	100.379	199.897
7.5925	99.7239	100.378	199.898
7.595	99.7235	100.377	199.899
7.5975	99.7231	100.376	199.9
7.6	99.7228	100.376	199.901
7.6025	99.7224	100.375	199.903
7.605	99.722	100.374	199.904
7.6075	99.7217	100.374	199.905
7.61	99.7213	100.373	199.906
7.6125	99.721	100.372	199.907
7.615	99.7206	100.372	199.908
7.6175	99.7203	100.371	199.909
7.62	99.72	100.37	199.91
7.6225	99.7196	100.369	199.911
7.625	99.7193	100.369	199.912
7.6275	99.719	100.368	199.913
7.63	99.7187	100.367	199.914
7.6325	99.7183	100.367	199.915
7.635	99.718	100.366	199.916
7.6375	99.7177	100.365	199.917
7.64	99.7174	100.365	199.918
7.6425	99.7171	100.364	199.919
7.645	99.7168	100.363	199.92
7.6475	99.7165	100.362	199.921
7.65	99.7162	100.362	199.922
7.6525	99.7159	100.361	199.923
7.655	99.7156	100.36	199.924
7.6575	99.7154	100.36	199.925
7.66	99.7151	100.359	199.926
7.6625	99.7148	100.358	199.927
7.665	99.7145	100.357	199.928
7.6675	99.7143	100.357	199.929
7.67	99.714	100.356	199.93
7.6725	99.7138	100.355	199.931
7.675	99.7135	100.355	199.932
7.6775	99.7133	100.354	199.933
7.68	99.713	100.353	199.934
7.6825	99.7128	100.352	199.935
7.685	99.7125	100.352	199.936
7.6875	99.7123	100.351	199.937
7.69	99.7121	100.35	199.938
7.6925	99.7118	100.349	199.939
7.695	99.7116	100.349	199.94
7.6975	99.7114	100.348	199.941
7.7	99.7112	100.347	199.942
7.7025	99.7109	100.347	199.942
7.705	99.7107	100.346	199.943
7.7075	99.7105	100.345	199.944
7.71	99.7103	100.344	199.945
7.7125	99.7101	100.344	199.946
7.715	99.7099	100.343	199.947
7.7175	99.7097	100.342	199.948
7.72	99.7095	100.341	199.949
7.7225	99.7094	100.341	199.95
7.725	99.7092	100.34	199.951
7.7275	99.709	100.339	199.952
7.73	99.7088	100.339	199.953
7.7325	99.7086	100.338	199.954
7.735	99.7085	100.337	199.954
7.7375	99.7083	100.336	199.955
7.74	99.7081	100.336	199.956
7.7425	99.708	100.335	199.957
7.745	99.7078	100.334	199.958
7.7475	99.7077	100.333	199.959
7.75	99.7075	100.333	199.96
7.7525	99.7074	100.332	199.961
7.755	99.7072	100.331	199.962
7.7575	99.7071	100.331	199.962
7.76	99.707	100.33	199.963
7.7625	99.7068	100.329	199.964
7.765	99.7067	100.328	199.965
7.7675	99.7066	100.328	199.966
7.77	99.7064	100.327	199.967
7.7725	99.7063	100.326	199.968
7.775	99.7062	100.325	199.968
7.7775	99.7061	100.325	199.969
7.78	99.706	100.324	199.97
7.7825	99.7059	100.323	199.971
7.785	99.7058	100.322	199.972
7.7875	99.7057	100.322	199.973
7.79	99.7056	100.321	199.974
7.7925	99.7055	100.32	199.974
7.795	99.7054	100.319	199.975
7.7975	99.7053	100.319	199.976
7.8	99.7052	100.318	199.977
7.8025	99.7051	100.317	199.978
7.805	99.705	100.317	199.978
7.8075	99.705	100.316	199.979
7.81	99.7049	100.315	199.98
7.8125	99.7048	100.314	199.981
7.815	99.7047	100.314	199.982
7.8175	99.7047	100.313	199.983
7.82	99.7046	100.312	199.983
7.8225	99.7046	100.311	199.984
7.825	99.7045	100.311	199.985
7.8275	99.7044	100.31	199.986
7.83	99.7044	100.309	199.987
7.8325	99.7044	100.308	199.987
7.835	99.7043	100.308	199.988
7.8375	99.7043	100.307	199.989
7.84	99.7042	100.306	199.99
7.8425	99.7042	100.305	199.99
7.845	99.7042	100.305	199.991
7.8475	99.7041	100.304	199.992
7.85	99.7041	100.303	199.993
7.8525	99.7041	100.302	199.993
7.855	99.7041	100.302	199.994
7.8575	99.704	100.301	199.995
7.86	99.704	100.3	199.996
7.8625	99.704	100.299	199.997
7.865	99.704	100.299	199.997
7.8675	99.704	100.298	199.998
7.87	99.704	100.297	199.999
7.8725	99.704	100.296	200
7.875	99.704	100.296	200
7.8775	99.704	100.295	200.001
7.88	99.704	100.294	200.002
7.8825	99.704	100.294	200.002
7.885	99.704	100.293	200.003
7.8875	99.704	100.292	200.004
7.89	99.7041	100.291	200.005
7.8925	99.7041	100.291	200.005
7.895	99.7041	100.29	200.006
7.8975	99.7041	100.289	200.007
7.9	99.7042	100.288	200.008
7.9025	99.7042	100.288	200.008
7.905	99.7042	100.287	200.009
7.9075	99.7043	100.286	200.01
7.91	99.7043	100.285	200.01
7.9125	99.7044	100.285	200.011
7.915	99.7044	100.284	200.012
7.9175	99.7044	100.283	200.012
7.92	99.7045	100.282	200.013
7.9225	99.7045	100.282	200.014
7.925	99.7046	100.281	200.014
7.9275	99.7047	100.28	200.015
7.93	99.7047	100.279	200.016
7.9325	99.7048	100.279	200.017
7.935	99.7048	100.278	200.017
7.9375	99.7049	100.277	200.018
7.94	99.705	100.276	200.019
7.9425	99.7051	100.276	200.019
7.945	99.7051	100.275	200.02
7.9475	99.7052	100.274	200.021
7.95	99.7053	100.274	200.021
7.9525	99.7054	100.273	200.022
7.955	99.7055	100.272	200.023
7.9575	99.7055	100.271	200.023
7.96	99.7056	100.271	200.024
7.9625	99.7057	100.27	200.024
7.965	99.7058	100.269	200.025
7.9675	99.7059	100.268	200.026
7.97	99.706	100.268	200.026
7.9725	99.7061	100.267	200.027
7.975	99.7062	100.266	200.028
7.9775	99.7063	100.265	200.028
7.98	99.7064	100.265	200.029
7.9825	99.7066	100.264	200.03
7.985	99.7067	100.263	200.03
7.9875	99.7068	100.262	200.031
7.99	99.7069	100.262	200.031
7.9925	99.707	100.261	200.032
7.995	99.7071	100.26	200.033
7.9975	99.7073	100.26	200.033
8	99.7074	100.259	200.034
8.0025	99.7075	100.258	200.034
8.005	99.7077	100.257	200.035
8.0075	99.7078	100.257	200.036
8.01	99.7079	100.256	200.036
8.0125	99.7081	100.255	200.037
8.015	99.7082	100.254	200.037
8.0175	99.7084	100.254	200.038
8.02	99.7085	100.253	200.039
8.0225	99.7086	100.252	200.039
8.025	99.7088	100.251	200.04
8.0275	99.709	100.251	200.04
8.03	99.7091	100.25	200.041
8.0325	99.7093	100.249	200.041
8.035	99.7094	100.249	200.042
8.0375	99.7096	100.248	200.043
8.04	99.7097	100.247	200.043
8.0425	99.7099	100.246	200.044
8.045	99.7101	100.246	200.044
8.0475	99.7102	100.245	200.045
8.05	99.7104	100.244	200.045
8.0525	99.7106	100.243	200.046
8.055	99.7108	100.243	200.046
8.0575	99.7109	100.242	200.047
8.06	99.7111	100.241	200.048
8.0625	99.7113	100.241	200.048
8.065	99.7115	100.24	200.049
8.0675	99.7117	100.239	200.049
8.07	99.7119	100.238	200.05
8.0725	99.712	100.238	200.05
8.075	99.7122	100.237	200.051
8.0775	99.7124	100.236	200.051
8.08	99.7126	100.236	200.052
8.0825	99.7128	100.235	200.052
8.085	99.713	100.234	200.053
8.0875	99.7132	100.233	200.053
8.09	99.7134	100.233	200.054
8.0925	99.7136	100.232	200.054
8.095	99.7138	100.231	200.055
8.0975	99.714	100.23	200.055
8.1	99.7143	100.23	200.056
8.1025	99.7145	100.229	200.056
8.105	99.7147	100.228	200.057
8.1075	99.7149	100.228	200.057
8.11	99.7151	100.227	200.058
8.1125	99.7153	100.226	200.058
8.115	99.7156	100.225	200.059
8.1175	99.7158	100.225	200.059
8.12	99.716	100.224	200.06
8.1225	99.7162	100.223	200.06
8.125	99.7165	100.223	200.061
8.1275	99.7167	100.222	200.061
8.13	99.7169	100.221	200.062
8.1325	99.7172	100.221	200.062
8.135	99.7174	100.22	200.063
8.1375	99.7176	100.219	200.063
8.14	99.7179	100.218	200.064
8.1425	99.7181	100.218	200.064
8.145	99.7184	100.217	200.065
8.1475	99.7186	100.216	200.065
8.15	99.7189	100.216	200.066
8.1525	99.7191	100.215	200.066
8.155	99.7193	100.214	200.066
8.1575	99.7196	100.213	200.067
8.16	99.7199	100.213	200.067
8.1625	99.7201	100.212	200.068
8.165	99.7204	100.211	200.068
8.1675	99.7206	100.211	200.069
8.17	99.7209	100.21	200.069
8.1725	99.7211	100.209	200.07
8.175	99.7214	100.209	200.07
8.1775	99.7217	100.208	200.07
8.18	99.7219	100.207	200.071
8.1825	99.7222	100.206	200.071
8.185	99.7225	100.206	200.072
8.1875	99.7228	100.205	200.072
8.19	99.723	100.204	200.073
8.1925	99.7233	100.204	200.073
8.195	99.7236	100.203	200.073
8.1975	99.7239	100.202	200.074
8.2	99.7241	100.202	200.074
8.2025	99.7244	100.201	200.075
8.205	99.7247	100.2	200.075
8.2075	99.725	100.2	200.075
8.21	99.7253	100.199	200.076
8.2125	99.7255	100.198	200.076
8.215	99.7258	100.197	200.077
8.2175	99.7261	100.197	200.077
8.22	99.7264	100.196	200.077
8.2225	99.7267	100.195	200.078
8.225	99.727	100.195	200.078
8.2275	99.7273	100.194	200.079
8.23	99.7276	100.193	200.079
8.2325	99.7279	100.193	200.079
8.235	99.7282	100.192	200.08
8.2375	99.7285	100.191	200.08
8.24	99.7288	100.191	200.081
8.2425	99.7291	100.19	200.081
8.245	99.7294	100.189	200.081
8.2475	99.7297	100.189	200.082
8.25	99.73	100.188	200.082
8.2525	99.7303	100.187	200.082
8.255	99.7306	100.187	200.083
8.2575	99.731	100.186	200.083
8.26	99.7313	100.185	200.083
8.2625	99.7316	100.185	200.084
8.265	99.7319	100.184	200.084
8.2675	99.7322	100.183	200.085
8.27	99.7325	100.183	200.085
8.2725	99.7329	100.182	200.085
8.275	99.7332	100.181	200.086
8.2775	99.7335	100.181	200.086
8.28	99.7338	100.18	200.086
8.2825	99.7342	100.179	200.087
8.285	99.7345	100.179	200.087
8.2875	99.7348	100.178	200.087
8.29	99.7351	100.177	200.088
8.2925	99.7355	100.177	200.088
8.295	99.7358	100.176	200.088
8.2975	99.7361	100.175	200.089
8.3	99.7365	100.175	200.089
8.3025	99.7368	100.174	200.089
8.305	99.7371	100.173	200.09
8.3075	99.7375	100.173	200.09
8.31	99.7378	100.172	200.09
8.3125	99.7382	100.171	200.091
8.315	99.7385	100.171	200.091
8.3175	99.7388	100.17	200.091
8.32	99.7392	100.169	200.092
8.3225	99.7395	100.169	200.092
8.325	99.7399	100.168	200.092
8.3275	99.7402	100.167	200.092
8.33	99.7406	100.167	200.093
8.3325	99.7409	100.166	200.093
8.335	99.7413	100.165	200.093
8.3375	99.7416	100.165	200.094
8.34	99.742	100.164	200.094
8.3425	99.7423	100.163	200.094
8.345	99.7427	100.163	200.094
8.3475	99.743	100.162	200.095
8.35	99.7434	100.162	200.095
8.3525	99.7438	100.161	200.095
8.355	99.7441	100.16	200.096
8.3575	99.7445	100.16	200.096
8.36	99.7448	100.159	200.096
8.3625	99.7452	100.158	200.096
8.365	99.7456	100.158	200.097
8.3675	99.7459	100.157	200.097
8.37	99.7463	100.156	200.097
8.3725	99.7467	100.156	200.098
8.375	99.747	100.155	200.098
8.3775	99.7474	100.155	200.098
8.38	99.7478	100.154	200.098
8.3825	99.7481	100.153	200.099
8.385	99.7485	100.153	200.099
8.3875	99.7489	100.152	200.099
8.39	99.7492	100.151	200.099
8.3925	99.7496	100.151	200.1
8.395	99.75	100.15	200.1
8.3975	99.7504	100.149	200.1
8.4	99.7507	100.149	200.1
8.4025	99.7511	100.148	200.101
8.405	99.7515	100.148	200.101
8.4075	99.7519	100.147	200.101
8.41	99.7523	100.146	200.101
8.4125	99.7526	100.146	200.102
8.415	99.753	100.145	200.102
8.4175	99.7534	100.145	200.102
8.42	99.7538	100.144	200.102
8.4225	99.7542	100.143	200.103
8.425	99.7546	100.143	200.103
8.4275	99.755	100.142	200.103
8.43	99.7553	100.141	200.103
8.4325	99.7557	100.141	200.103
8.435	99.7561	100.14	200.104
8.4375	99.7565	100.14	200.104
8.44	99.7569	100.139	200.104
8.4425	99.7573	100.138	200.104
8.445	99.7577	100.138	200.105
8.4475	99.7581	100.137	200.105
8.45	99.7585	100.137	200.105
8.4525	99.7589	100.136	200.105
8.455	99.7593	100.135	200.105
8.4575	99.7597	100.135	200.106
8.46	99.7601	100.134	200.106
8.4625	99.7605	100.134	200.106
8.465	99.7608	100.133	200.106
8.4675	99.7612	100.132	200.106
8.47	99.7616	100.132	200.107
8.4725	99.7621	100.131	200.107
8.475	99.7625	100.131	200.107
8.4775	99.7629	100.13	200.107
8.48	99.7633	100.129	200.107
8.4825	99.7637	100.129	200.108
8.485	99.7641	100.128	200.108
8.4875	99.7645	100.128	200.108
8.49	99.7649	100.127	200.108
8.4925	99.7653	100.126	200.108
8.495	99.7657	100.126	200.108
8.4975	99.7661	100.125	200.109
8.5	99.7665	100.125	200.109
8.5025	99.7669	100.124	200.109
8.505	99.7673	100.124	200.109
8.5075	99.7677	100.123	200.109
8.51	99.7681	100.122	200.109
8.5125	99.7686	100.122	200.11
8.515	99.769	100.121	200.11
8.5175	99.7694	100.121	200.11
8.52	99.7698	100.12	200.11
8.5225	99.7702	100.119	200.11
8.525	99.7706	100.119	200.11
8.5275	99.771	100.118	200.111
8.53	99.7715	100.118	200.111
8.5325	99.7719	100.117	200.111
8.535	99.7723	100.117	200.111
8.5375	99.7727	100.116	200.111
8.54	99.7731	100.115	200.111
8.5425	99.7735	100.115	200.112
8.545	99.774	100.114	200.112
8.5475	99.7744	100.114	200.112
8.55	99.7748	100.113	200.112
8.5525	99.7752	100.113	200.112
8.555	99.7756	100.112	200.112
8.5575	99.7761	100.112	200.112
8.56	99.7765	100.111	200.113
8.5625	99.7769	100.11	200.113
8.565	99.7773	100.11	200.113
8.5675	99.7778	100.109	200.113
8.57	99.7782	100.109	200.113
8.5725	99.7786	100.108	200.113
8.575	99.779	100.108	200.113
8.5775	99.7795	100.107	200.113
8.58	99.7799	100.107	200.114
8.5825	99.7803	100.106	200.114
8.585	99.7807	100.105	200.114
8.5875	99.7812	100.105	200.114
8.59	99.7816	100.104	200.114
8.5925	99.782	100.104	200.114
8.595	99.7825	100.103	200.114
8.5975	99.7829	100.103	200.114
8.6	99.7833	100.102	200.115
8.6025	99.7837	100.102	200.115
8.605	99.7842	100.101	200.115
8.6075	99.7846	100.101	200.115
8.61	99.785	100.1	200.115
8.6125	99.7855	100.099	200.115
8.615	99.7859	100.099	200.115
8.6175	99.7863	100.098	200.115
8.62	99.7868	100.098	200.115
8.6225	99.7872	100.097	200.115
8.625	99.7876	100.097	200.116
8.6275	99.7881	100.096	200.116
8.63	99.7885	100.096	200.116
8.6325	99.7889	100.095	200.116
8.635	99.7894	100.095	200.116
8.6375	99.7898	100.094	200.116
8.64	99.7902	100.094	200.116
8.6425	99.7907	100.093	200.116
8.645	99.7911	100.093	200.116
8.6475	99.7916	100.092	200.116
8.65	99.792	100.092	200.116
8.6525	99.7924	100.091	200.117
8.655	99.7929	100.09	200.117
8.6575	99.7933	100.09	200.117
8.66	99.7937	100.089	200.117
8.6625	99.7942	100.089	200.117
8.665	99.7946	100.088	200.117
8.6675	99.7951	100.088	200.117
8.67	99.7955	100.087	200.117
8.6725	99.7959	100.087	200.117
8.675	99.7964	100.086	200.117
8.6775	99.7968	100.086	200.117
8.68	99.7973	100.085	200.117
8.6825	99.7977	100.085	200.117
8.685	99.7981	100.084	200.118
8.6875	99.7986	100.084	200.118
8.69	99.799	100.083	200.118
8.6925	99.7995	100.083	200.118
8.695	99.7999	100.082	200.118
8.6975	99.8003	100.082	200.118
8.7	99.8008	100.081	200.118
8.7025	99.8012	100.081	200.118
8.705	99.8017	100.08	200.118
8.7075	99.8021	100.08	200.118
8.71	99.8026	100.079	200.118
8.7125	99.803	100.079	200.118
8.715	99.8034	100.078	200.118
8.7175	99.8039	100.078	200.118
8.72	99.8043	100.077	200.118
8.7225	99.8048	100.077	200.118
8.725	99.8052	100.076	200.118
8.7275	99.8057	100.076	200.118
8.73	99.8061	100.075	200.118
8.7325	99.8066	100.075	200.118
8.735	99.807	100.074	200.119
8.7375	99.8074	100.074	200.119
8.74	99.8079	100.073	200.119
8.7425	99.8083	100.073	200.119
8.745	99.8088	100.073	200.119
8.7475	99.8092	100.072	200.119
8.75	99.8097	100.072	200.119
8.7525	99.8101	100.071	200.119
8.755	99.8106	100.071	200.119
8.7575	99.811	100.07	200.119
8.76	99.8115	100.07	200.119
8.7625	99.8119	100.069	200.119
8.765	99.8124	100.069	200.119
8.7675	99.8128	100.068	200.119
8.77	99.8132	100.068	200.119
8.7725	99.8137	100.067	200.119
8.775	99.8141	100.067	200.119
8.7775	99.8146	100.066	200.119
8.78	99.815	100.066	200.119
8.7825	99.8155	100.065	200.119
8.785	99.8159	100.065	200.119
8.7875	99.8164	100.065	200.119
8.79	99.8168	100.064	200.119
8.7925	99.8173	100.064	200.119
8.795	99.8177	100.063	200.119
8.7975	99.8182	100.063	200.119
8.8	99.8186	100.062	200.119
8.8025	99.8191	100.062	200.119
8.805	99.8195	100.061	200.119
8.8075	99.8199	100.061	200.119
8.81	99.8204	100.06	200.119
8.8125	99.8208	100.06	200.119
8.815	99.8213	100.06	200.119
8.8175	99.8217	100.059	200.119
8.82	99.8222	100.059	200.119
8.8225	99.8226	100.058	200.119
8.825	99.8231	100.058	200.119
8.8275	99.8235	100.057	200.119
8.83	99.824	100.057	200.119
8.8325	99.8244	100.056	200.119
8.835	99.8249	100.056	200.119
8.8375	99.8253	100.056	200.119
8.84	99.8258	100.055	200.119
8.8425	99.8262	100.055	200.119
8.845	99.8266	100.054	200.119
8.8475	99.8271	100.054	200.119
8.85	99.8275	100.053	200.119
8.8525	99.828	100.053	200.119
8.855	99.8284	100.053	200.119
8.8575	99.8289	100.052	200.119
8.86	99.8293	100.052	200.119
8.8625	99.8298	100.051	200.119
8.865	99.8302	100.051	200.119
8.8675	99.8307	100.05	200.119
8.87	99.8311	100.05	200.119
8.8725	99.8316	100.05	200.119
8.875	99.832	100.049	200.119
8.8775	99.8324	100.049	200.119
8.88	99.8329	100.048	200.119
8.8825	99.8333	100.048	200.119
8.885	99.8338	100.048	200.119
8.8875	99.8342	100.047	200.119
8.89	99.8347	100.047	200.119
8.8925	99.8351	100.046	200.119
8.895	99.8356	100.046	200.119
8.8975	99.836	100.045	200.119
8.9	99.8365	100.045	200.119
8.9025	99.8369	100.045	200.118
8.905	99.8373	100.044	200.118
8.9075	99.8378	100.044	200.118
8.91	99.8382	100.043	200.118
8.9125	99.8387	100.043	200.118
8.915	99.8391	100.043	200.118
8.9175	99.8396	100.042	200.118
8.92	99.84	100.042	200.118
8.9225	99.8405	100.041	200.118
8.925	99.8409	100.041	200.118
8.9275	99.8413	100.041	200.118
8.93	99.8418	100.04	200.118
8.9325	99.8422	100.04	200.118
8.935	99.8427	100.039	200.118
8.9375	99.8431	100.039	200.118
8.94	99.8435	100.039	200.118
8.9425	99.844	100.038	200.118
8.945	99.8444	100.038	200.118
8.9475	99.8449	100.037	200.118
8.95	99.8453	100.037	200.118
8.9525	99.8458	100.037	200.118
8.955	99.8462	100.036	200.118
8.9575	99.8466	100.036	200.117
8.96	99.8471	100.036	200.117
8.9625	99.8475	100.035	200.117
8.965	99.848	100.035	200.117
8.9675	99.8484	100.034	200.117
8.97	99.8488	100.034	200.117
8.9725	99.8493	100.034	200.117
8.975	99.8497	100.033	200.117
8.9775	99.8502	100.033	200.117
8.98	99.8506	100.033	200.117
8.9825	99.851	100.032	200.117
8.985	99.8515	100.032	200.117
8.9875	99.8519	100.031	200.117
8.99	99.8523	100.031	200.117
8.9925	99.8528	100.031	200.117
8.995	99.8532	100.03	200.116
8.9975	99.8537	100.03	200.116
9	99.8541	100.03	200.116
9.0025	99.8545	100.029	200.116
9.005	99.855	100.029	200.116
9.0075	99.8554	100.028	200.116
9.01	99.8558	100.028	200.116
9.0125	99.8563	100.028	200.116
9.015	99.8567	100.027	200.116
9.0175	99.8571	100.027	200.116
9.02	99.8576	100.027	200.116
9.0225	99.858	100.026	200.116
9.025	99.8584	100.026	200.116
9.0275	99.8589	100.026	200.116
9.03	99.8593	100.025	200.115
9.0325	99.8597	100.025	200.115
9.035	99.8602	100.025	200.115
9.0375	99.8606	100.024	200.115
9.04	99.861	100.024	200.115
9.0425	99.8615	100.024	200.115
9.045	99.8619	100.023	200.115
9.0475	99.8623	100.023	200.115
9.05	99.8628	100.022	200.115
9.0525	99.8632	100.022	200.115
9.055	99.8636	100.022	200.115
9.0575	99.8641	100.021	200.114
9.06	99.8645	100.021	200.114
9.0625	99.8649	100.021	200.114
9.065	99.8653	100.02	200.114
9.0675	99.8658	100.02	200.114
9.07	99.8662	100.02	200.114
9.0725	99.8666	100.019	200.114
9.075	99.8671	100.019	200.114
9.0775	99.8675	100.019	200.114
9.08	99.8679	100.018	200.114
9.0825	99.8683	100.018	200.114
9.085	99.8688	100.018	200.113
9.0875	99.8692	100.017	200.113
9.09	99.8696	100.017	200.113
9.0925	99.87	100.017	200.113
9.095	99.8705	100.016	200.113
9.0975	99.8709	100.016	200.113
9.1	99.8713	100.016	200.113
9.1025	99.8717	100.016	200.113
9.105	99.8721	100.015	200.113
9.1075	99.8726	100.015	200.113
9.11	99.873	100.015	200.112
9.1125	99.8734	100.014	200.112
9.115	99.8738	100.014	200.112
9.1175	99.8743	100.014	200.112
9.12	99.8747	100.013	200.112
9.1225	99.8751	100.013	200.112
9.125	99.8755	100.013	200.112
9.1275	99.8759	100.012	200.112
9.13	99.8764	100.012	200.112
9.1325	99.8768	100.012	200.111
9.135	99.8772	100.011	200.111
9.1375	99.8776	100.011	200.111
9.14	99.878	100.011	200.111
9.1425	99.8784	100.011	200.111
9.145	99.8789	100.01	200.111
9.1475	99.8793	100.01	200.111
9.15	99.8797	100.01	200.111
9.1525	99.8801	100.009	200.111
9.155	99.8805	100.009	200.11
9.1575	99.8809	100.009	200.11
9.16	99.8813	100.008	200.11
9.1625	99.8818	100.008	200.11
9.165	99.8822	100.008	200.11
9.1675	99.8826	100.008	200.11
9.17	99.883	100.007	200.11
9.1725	99.8834	100.007	200.11
9.175	99.8838	100.007	200.11
9.1775	99.8842	100.006	200.109
9.18	99.8846	100.006	200.109
9.1825	99.8851	100.006	200.109
9.185	99.8855	100.005	200.109
9.1875	99.8859	100.005	200.109
9.19	99.8863	100.005	200.109
9.1925	99.8867	100.005	200.109
9.195	99.8871	100.004	200.109
9.1975	99.8875	100.004	200.108
9.2	99.8879	100.004	200.108
9.2025	99.8883	100.004	200.108
9.205	99.8887	100.003	200.108
9.2075	99.8891	100.003	200.108
9.21	99.8895	100.003	200.108
9.2125	99.8899	100.002	200.108
9.215	99.8903	100.002	200.108
9.2175	99.8907	100.002	200.107
9.22	99.8911	100.002	200.107
9.2225	99.8915	100.001	200.107
9.225	99.8919	100.001	200.107
9.2275	99.8923	100.001	200.107
9.23	99.8927	100.001	200.107
9.2325	99.8931	100	200.107
9.235	99.8935	100	200.106
9.2375	99.8939	99.9997	200.106
9.24	99.8943	99.9994	200.106
9.2425	99.8947	99.9992	200.106
9.245	99.8951	99.9989	200.106
9.2475	99.8955	99.9986	200.106
9.25	99.8959	99.9984	200.106
9.2525	99.8963	99.9981	200.106
9.255	99.8967	99.9979	200.105
9.2575	99.8971	99.9976	200.105
9.26	99.8975	99.9974	200.105
9.2625	99.8979	99.9971	200.105
9.265	99.8983	99.9968	200.105
9.2675	99.8987	99.9966	200.105
9.27	99.8991	99.9963	200.105
9.2725	99.8995	99.9961	200.104
9.275	99.8999	99.9958	200.104
9.2775	99.9003	99.9956	200.104
9.28	99.9006	99.9953	200.104
9.2825	99.901	99.9951	200.104
9.285	99.9014	99.9948	200.104
9.2875	99.9018	99.9946	200.104
9.29	99.9022	99.9944	200.103
9.2925	99.9026	99.9941	200.103
9.295	99.903	99.9939	200.103
9.2975	99.9034	99.9936	200.103
9.3	99.9038	99.9934	200.103
9.3025	99.9041	99.9931	200.103
9.305	99.9045	99.9929	200.103
9.3075	99.9049	99.9927	200.102
9.31	99.9053	99.9924	200.102
9.3125	99.9057	99.9922	200.102
9.315	99.9061	99.992	200.102
9.3175	99.9064	99.9917	200.102
9.32	99.9068	99.9915	200.102
9.3225	99.9072	99.9913	200.102
9.325	99.9076	99.991	200.101
9.3275	99.908	99.9908	200.101
9.33	99.9083	99.9906	200.101
9.3325	99.9087	99.9903	200.101
9.335	99.9091	99.9901	200.101
9.3375	99.9095	99.9899	200.101
9.34	99.9099	99.9897	200.1
9.3425	99.9102	99.9894	200.1
9.345	99.9106	99.9892	200.1
9.3475	99.911	99.989	200.1
9.35	99.9114	99.9888	200.1
9.3525	99.9117	99.9885	200.1
9.355	99.9121	99.9883	200.1
9.3575	99.9125	99.9881	200.099
9.36	99.9128	99.9879	200.099
9.3625	99.9132	99.9877	200.099
9.365	99.9136	99.9874	200.099
9.3675	99.914	99.9872	200.099
9.37	99.9143	99.987	200.099
9.3725	99.9147	99.9868	200.098
9.375	99.9151	99.9866	200.098
9.3775	99.9154	99.9864	200.098
9.38	99.9158	99.9862	200.098
9.3825	99.9162	99.986	200.098
9.385	99.9165	99.9857	200.098
9.3875	99.9169	99.9855	200.098
9.39	99.9173	99.9853	200.097
9.3925	99.9176	99.9851	200.097
9.395	99.918	99.9849	200.097
9.3975	99.9184	99.9847	200.097
9.4	99.9187	99.9845	200.097
9.4025	99.9191	99.9843	200.097
9.405	99.9195	99.9841	200.096
9.4075	99.9198	99.9839	200.096
9.41	99.9202	99.9837	200.096
9.4125	99.9205	99.9835	200.096
9.415	99.9209	99.9833	200.096
9.4175	99.9213	99.9831	200.096
9.42	99.9216	99.9829	200.095
9.4225	99.922	99.9827	200.095
9.425	99.9223	99.9825	200.095
9.4275	99.9227	99.9823	200.095
9.43	99.923	99.9821	200.095
9.4325	99.9234	99.9819	200.095
9.435	99.9238	99.9818	200.094
9.4375	99.9241	99.9816	200.094
9.44	99.9245	99.9814	200.094
9.4425	99.9248	99.9812	200.094
9.445	99.9252	99.981	200.094
9.4475	99.9255	99.9808	200.094
9.45	99.9259	99.9806	200.094
9.4525	99.9262	99.9804	200.093
9.455	99.9266	99.9803	200.093
9.4575	99.9269	99.9801	200.093
9.46	99.9273	99.9799	200.093
9.4625	99.9276	99.9797	200.093
9.465	99.928	99.9795	200.093
9.4675	99.9283	99.9794	200.092
9.47	99.9287	99.9792	200.092
9.4725	99.929	99.979	200.092
9.475	99.9293	99.9788	200.092
9.4775	99.9297	99.9786	200.092
9.48	99.93	99.9785	200.092
9.4825	99.9304	99.9783	200.091
9.485	99.9307	99.9781	200.091
9.4875	99.9311	99.9779	200.091
9.49	99.9314	99.9778	200.091
9.4925	99.9317	99.9776	200.091
9.495	99.9321	99.9774	200.09
9.4975	99.9324	99.9773	200.09
9.5	99.9328	99.9771	200.09
9.5025	99.9331	99.9769	200.09
9.505	99.9334	99.9768	200.09
9.5075	99.9338	99.9766	200.09
9.51	99.9341	99.9764	200.089
9.5125	99.9344	99.9763	200.089
9.515	99.9348	99.9761	200.089
9.5175	99.9351	99.9759	200.089
9.52	99.9354	99.9758	200.089
9.5225	99.9358	99.9756	200.089
9.525	99.9361	99.9755	200.088
9.5275	99.9364	99.9753	200.088
9.53	99.9368	99.9751	200.088
9.5325	99.9371	99.975	200.088
9.535	99.9374	99.9748	200.088
9.5375	99.9378	99.9747	200.088
9.54	99.9381	99.9745	200.087
9.5425	99.9384	99.9744	200.087
9.545	99.9387	99.9742	200.087
9.5475	99.9391	99.9741	200.087
9.55	99.9394	99.9739	200.087
9.5525	99.9397	99.9738	200.087
9.555	99.94	99.9736	200.086
9.5575	99.9404	99.9735	200.086
9.56	99.9407	99.9733	200.086
9.5625	99.941	99.9732	200.086
9.565	99.9413	99.973	200.086
9.5675	99.9416	99.9729	200.085
9.57	99.942	99.9727	200.085
9.5725	99.9423	99.9726	200.085
9.575	99.9426	99.9724	200.085
9.5775	99.9429	99.9723	200.085
9.58	99.9432	99.9721	200.085
9.5825	99.9436	99.972	200.084
9.585	99.9439	99.9719	200.084
9.5875	99.9442	99.9717	200.084
9.59	99.9445	99.9716	200.084
9.5925	99.9448	99.9714	200.084
9.595	99.9451	99.9713	200.084
9.5975	99.9454	99.9712	200.083
9.6	99.9458	99.971	200.083
9.6025	99.9461	99.9709	200.083
9.605	99.9464	99.9708	200.083
9.6075	99.9467	99.9706	200.083
9.61	99.947	99.9705	200.083
9.6125	99.9473	99.9704	200.082
9.615	99.9476	99.9702	200.082
9.6175	99.9479	99.9701	200.082
9.62	99.9482	99.97	200.082
9.6225	99.9485	99.9698	200.082
9.625	99.9488	99.9697	200.081
9.6275	99.9491	99.9696	200.081
9.63	99.9495	99.9695	200.081
9.6325	99.9498	99.9693	200.081
9.635	99.9501	99.9692	200.081
9.6375	99.9504	99.9691	200.081
9.64	99.9507	99.969	200.08
9.6425	99.951	99.9688	200.08
9.645	99.9513	99.9687	200.08
9.6475	99.9516	99.9686	200.08
9.65	99.9519	99.9685	200.08
9.6525	99.9522	99.9684	200.079
9.655	99.9525	99.9682	200.079
9.6575	99.9528	99.9681	200.079
9.66	99.9531	99.968	200.079
9.6625	99.9533	99.9679	200.079
9.665	99.9536	99.9678	200.079
9.6675	99.9539	99.9677	200.078
9.67	99.9542	99.9675	200.078
9.6725	99.9545	99.9674	200.078
9.675	99.9548	99.9673	200.078
9.6775	99.9551	99.9672	200.078
9.68	99.9554	99.9671	200.078
9.6825	99.9557	99.967	200.077
9.685	99.956	99.9669	200.077
9.6875	99.9563	99.9668	200.077
9.69	99.9566	99.9666	200.077
9.6925	99.9568	99.9665	200.077
9.695	99.9571	99.9664	200.076
9.6975	99.9574	99.9663	200.076
9.7	99.9577	99.9662	200.076
9.7025	99.958	99.9661	200.076
9.705	99.9583	99.966	200.076
9.7075	99.9586	99.9659	200.076
9.71	99.9588	99.9658	200.075
9.7125	99.9591	99.9657	200.075
9.715	99.9594	99.9656	200.075
9.7175	99.9597	99.9655	200.075
9.72	99.96	99.9654	200.075
9.7225	99.9602	99.9653	200.074
9.725	99.9605	99.9652	200.074
9.7275	99.9608	99.9651	200.074
9.73	99.9611	99.965	200.074
9.7325	99.9614	99.9649	200.074
9.735	99.9616	99.9648	200.074
9.7375	99.9619	99.9647	200.073
9.74	99.9622	99.9646	200.073
9.7425	99.9625	99.9645	200.073
9.745	99.9627	99.9644	200.073
9.7475	99.963	99.9643	200.073
9.75	99.9633	99.9642	200.072
9.7525	99.9635	99.9642	200.072
9.755	99.9638	99.9641	200.072
9.7575	99.9641	99.964	200.072
9.76	99.9644	99.9639	200.072
9.7625	99.9646	99.9638	200.072
9.765	99.9649	99.9637	200.071
9.7675	99.9652	99.9636	200.071
9.77	99.9654	99.9635	200.071
9.7725	99.9657	99.9634	200.071
9.775	99.966	99.9634	200.071
9.7775	99.9662	99.9633	200.071
9.78	99.9665	99.9632	200.07
9.7825	99.9667	99.9631	200.07
9.785	99.967	99.963	200.07
9.7875	99.9673	99.9629	200.07
9.79	99.9675	99.9629	200.07
9.7925	99.9678	99.9628	200.069
9.795	99.9681	99.9627	200.069
9.7975	99.9683	99.9626	200.069
9.8	99.9686	99.9625	200.069
9.8025	99.9688	99.9625	200.069
9.805	99.9691	99.9624	200.069
9.8075	99.9693	99.9623	200.068
9.81	99.9696	99.9622	200.068
9.8125	99.9699	99.9622	200.068
9.815	99.9701	99.9621	200.068
9.8175	99.9704	99.962	200.068
9.82	99.9706	99.9619	200.067
9.8225	99.9709	99.9619	200.067
9.825	99.9711	99.9618	200.067
9.8275	99.9714	99.9617	200.067
9.83	99.9716	99.9616	200.067
9.8325	99.9719	99.9616	200.067
9.835	99.9721	99.9615	200.066
9.8375	99.9724	99.9614	200.066
9.84	99.9726	99.9614	200.066
9.8425	99.9729	99.9613	200.066
9.845	99.9731	99.9612	200.066
9.8475	99.9734	99.9612	200.065
9.85	99.9736	99.9611	200.065
9.8525	99.9738	99.961	200.065
9.855	99.9741	99.961	200.065
9.8575	99.9743	99.9609	200.065
9.86	99.9746	99.9608	200.065
9.8625	99.9748	99.9608	200.064
9.865	99.9751	99.9607	200.064
9.8675	99.9753	99.9607	200.064
9.87	99.9755	99.9606	200.064
9.8725	99.9758	99.9605	200.064
9.875	99.976	99.9605	200.064
9.8775	99.9763	99.9604	200.063
9.88	99.9765	99.9603	200.063
9.8825	99.9767	99.9603	200.063
9.885	99.977	99.9602	200.063
9.8875	99.9772	99.9602	200.063
9.89	99.9774	99.9601	200.062
9.8925	99.9777	99.9601	200.062
9.895	99.9779	99.96	200.062
9.8975	99.9781	99.96	200.062
9.9	99.9784	99.9599	200.062
9.9025	99.9786	99.9598	200.062
9.905	99.9788	99.9598	200.061
9.9075	99.9791	99.9597	200.061
9.91	99.9793	99.9597	200.061
9.9125	99.9795	99.9596	200.061
9.915	99.9797	99.9596	200.061
9.9175	99.98	99.9595	200.06
9.92	99.9802	99.9595	200.06
9.9225	99.9804	99.9594	200.06
9.925	99.9806	99.9594	200.06
9.9275	99.9809	99.9593	200.06
9.93	99.9811	99.9593	200.06
9.9325	99.9813	99.9592	200.059
9.935	99.9815	99.9592	200.059
9.9375	99.9818	99.9592	200.059
9.94	99.982	99.9591	200.059
9.9425	99.9822	99.9591	200.059
9.945	99.9824	99.959	200.059
9.9475	99.9826	99.959	200.058
9.95	99.9829	99.9589	200.058
9.9525	99.9831	99.9589	200.058
9.955	99.9833	99.9588	200.058
9.9575	99.9835	99.9588	200.058
9.96	99.9837	99.9588	200.058
9.9625	99.9839	99.9587	200.057
9.965	99.9842	99.9587	200.057
9.9675	99.9844	99.9586	200.057
9.97	99.9846	99.9586	200.057
9.9725	99.9848	99.9586	200.057
9.975	99.985	99.9585	200.056
9.9775	99.9852	99.9585	200.056
9.98	99.9854	99.9585	200.056
9.9825	99.9856	99.9584	200.056
9.985	99.9859	99.9584	200.056
9.9875	99.9861	99.9583	200.056
9.99	99.9863	99.9583	200.055
9.9925	99.9865	99.9583	200.055
9.995	99.9867	99.9582	200.055
9.9975	99.9869	99.9582	200.055
10	99.9871	99.9582	200.055
10.0025	99.9873	99.9581	200.055
10.005	99.9875	99.9581	200.054
10.0075	99.9877	99.9581	200.054
10.01	99.9879	99.9581	200.054
10.0125	99.9881	99.958	200.054
10.015	99.9883	99.958	200.054
10.0175	99.9885	99.958	200.054
10.02	99.9887	99.9579	200.053
10.0225	99.9889	99.9579	200.053
10.025	99.9891	99.9579	200.053
10.0275	99.9893	99.9579	200.053
10.03	99.9895	99.9578	200.053
10.0325	99.9897	99.9578	200.052
10.035	99.9899	99.9578	200.052
10.0375	99.9901	99.9578	200.052
10.04	99.9903	99.9577	200.052
10.0425	99.9905	99.9577	200.052
10.045	99.9907	99.9577	200.052
10.0475	99.9909	99.9577	200.051
10.05	99.9911	99.9576	200.051
10.0525	99.9913	99.9576	200.051
10.055	99.9915	99.9576	200.051
10.0575	99.9916	99.9576	200.051
10.06	99.9918	99.9576	200.051
10.0625	99.992	99.9575	200.05
10.065	99.9922	99.9575	200.05
10.0675	99.9924	99.9575	200.05
10.07	99.9926	99.9575	200.05
10.0725	99.9928	99.9575	200.05
10.075	99.993	99.9574	200.05
10.0775	99.9932	99.9574	200.049
10.08	99.9933	99.9574	200.049
10.0825	99.9935	99.9574	200.049
10.085	99.9937	99.9574	200.049
10.0875	99.9939	99.9574	200.049
10.09	99.9941	99.9573	200.049
10.0925	99.9943	99.9573	200.048
10.095	99.9944	99.9573	200.048
10.0975	99.9946	99.9573	200.048
10.1	99.9948	99.9573	200.048
10.1025	99.995	99.9573	200.048
10.105	99.9952	99.9573	200.048
10.1075	99.9953	99.9572	200.047
10.11	99.9955	99.9572	200.047
10.1125	99.9957	99.9572	200.047
10.115	99.9959	99.9572	200.047
10.1175	99.996	99.9572	200.047
10.12	99.9962	99.9572	200.047
10.1225	99.9964	99.9572	200.046
10.125	99.9966	99.9572	200.046
10.1275	99.9967	99.9572	200.046
10.13	99.9969	99.9572	200.046
10.1325	99.9971	99.9572	200.046
10.135	99.9972	99.9571	200.046
10.1375	99.9974	99.9571	200.045
10.14	99.9976	99.9571	200.045
10.1425	99.9978	99.9571	200.045
10.145	99.9979	99.9571	200.045
10.1475	99.9981	99.9571	200.045
10.15	99.9983	99.9571	200.045
10.1525	99.9984	99.9571	200.044
10.155	99.9986	99.9571	200.044
10.1575	99.9988	99.9571	200.044
10.16	99.9989	99.9571	200.044
10.1625	99.9991	99.9571	200.044
10.165	99.9993	99.9571	200.044
10.1675	99.9994	99.9571	200.043
10.17	99.9996	99.9571	200.043
10.1725	99.9997	99.9571	200.043
10.175	99.9999	99.9571	200.043
10.1775	100	99.9571	200.043
10.18	100	99.9571	200.043
10.1825	100	99.9571	200.043
10.185	100.001	99.9571	200.042
10.1875	100.001	99.9571	200.042
10.19	100.001	99.9571	200.042
10.1925	100.001	99.9571	200.042
10.195	100.001	99.9571	200.042
10.1975	100.001	99.9571	200.042
10.2	100.001	99.9571	200.041
10.2025	100.002	99.9571	200.041
10.205	100.002	99.9571	200.041
10.2075	100.002	99.9571	200.041
10.21	100.002	99.9571	200.041
10.2125	100.002	99.9571	200.041
10.215	100.002	99.9571	200.04
10.2175	100.003	99.9571	200.04
10.22	100.003	99.9571	200.04
10.2225	100.003	99.9572	200.04
10.225	100.003	99.9572	200.04
10.2275	100.003	99.9572	200.04
10.23	100.003	99.9572	200.04
10.2325	100.003	99.9572	200.039
10.235	100.004	99.9572	200.039
10.2375	100.004	99.9572	200.039
10.24	100.004	99.9572	200.039
10.2425	100.004	99.9572	200.039
10.245	100.004	99.9572	200.039
10.2475	100.004	99.9572	200.038
10.25	100.004	99.9573	200.038
10.2525	100.005	99.9573	200.038
10.255	100.005	99.9573	200.038
10.2575	100.005	99.9573	200.038
10.26	100.005	99.9573	200.038
10.2625	100.005	99.9573	200.037
10.265	100.005	99.9573	200.037
10.2675	100.005	99.9573	200.037
10.27	100.006	99.9574	200.037
10.2725	100.006	99.9574	200.037
10.275	100.006	99.9574	200.037
10.2775	100.006	99.9574	200.037
10.28	100.006	99.9574	200.036
10.2825	100.006	99.9574	200.036
10.285	100.006	99.9574	200.036
10.2875	100.007	99.9575	200.036
10.29	100.007	99.9575	200.036
10.2925	100.007	99.9575	200.036
10.295	100.007	99.9575	200.036
10.2975	100.007	99.9575	200.035
10.3	100.007	99.9576	200.035
10.3025	100.007	99.9576	200.035
10.305	100.007	99.9576	200.035
10.3075	100.008	99.9576	200.035
10.31	100.008	99.9576	200.035
10.3125	100.008	99.9576	200.034
10.315	100.008	99.9577	200.034
10.3175	100.008	99.9577	200.034
10.32	100.008	99.9577	200.034
10.3225	100.008	99.9577	200.034
10.325	100.009	99.9577	200.034
10.3275	100.009	99.9578	200.034
10.33	100.009	99.9578	200.033
10.3325	100.009	99.9578	200.033
10.335	100.009	99.9578	200.033
10.3375	100.009	99.9579	200.033
10.34	100.009	99.9579	200.033
10.3425	100.009	99.9579	200.033
10.345	100.01	99.9579	200.033
10.3475	100.01	99.958	200.032
10.35	100.01	99.958	200.032
10.3525	100.01	99.958	200.032
10.355	100.01	99.958	200.032
10.3575	100.01	99.9581	200.032
10.36	100.01	99.9581	200.032
10.3625	100.01	99.9581	200.032
10.365	100.01	99.9581	200.031
10.3675	100.011	99.9582	200.031
10.37	100.011	99.9582	200.031
10.3725	100.011	99.9582	200.031
10.375	100.011	99.9582	200.031
10.3775	100.011	99.9583	200.031
10.38	100.011	99.9583	200.031
10.3825	100.011	99.9583	200.03
10.385	100.011	99.9583	200.03
10.3875	100.012	99.9584	200.03
10.39	100.012	99.9584	200.03
10.3925	100.012	99.9584	200.03
10.395	100.012	99.9585	200.03
10.3975	100.012	99.9585	200.03
10.4	100.012	99.9585	200.029
10.4025	100.012	99.9586	200.029
10.405	100.012	99.9586	200.029
10.4075	100.012	99.9586	200.029
10.41	100.013	99.9586	200.029
10.4125	100.013	99.9587	200.029
10.415	100.013	99.9587	200.029
10.4175	100.013	99.9587	200.028
10.42	100.013	99.9588	200.028
10.4225	100.013	99.9588	200.028
10.425	100.013	99.9588	200.028
10.4275	100.013	99.9589	200.028
10.43	100.013	99.9589	200.028
10.4325	100.013	99.9589	200.028
10.435	100.014	99.959	200.027
10.4375	100.014	99.959	200.027
10.44	100.014	99.959	200.027
10.4425	100.014	99.9591	200.027
10.445	100.014	99.9591	200.027
10.4475	100.014	99.9591	200.027
10.45	100.014	99.9592	200.027
10.4525	100.014	99.9592	200.027
10.455	100.014	99.9593	200.026
10.4575	100.014	99.9593	200.026
10.46	100.015	99.9593	200.026
10.4625	100.015	99.9594	200.026
10.465	100.015	99.9594	200.026
10.4675	100.015	99.9594	200.026
10.47	100.015	99.9595	200.026
10.4725	100.015	99.9595	200.025
10.475	100.015	99.9595	200.025
10.4775	100.015	99.9596	200.025
10.48	100.015	99.9596	200.025
10.4825	100.015	99.9597	200.025
10.485	100.016	99.9597	200.025
10.4875	100.016	99.9597	200.025
10.49	100.016	99.9598	200.025
10.4925	100.016	99.9598	200.024
10.495	100.016	99.9599	200.024
10.4975	100.016	99.9599	200.024
10.5	100.016	99.9599	200.024
10.5025	100.016	99.96	200.024
10.505	100.016	99.96	200.024
10.5075	100.016	99.9601	200.024
10.51	100.016	99.9601	200.023
10.5125	100.017	99.9601	200.023
10.515	100.017	99.9602	200.023
10.5175	100.017	99.9602	200.023
10.52	100.017	99.9603	200.023
10.5225	100.017	99.9603	200.023
10.525	100.017	99.9603	200.023
10.5275	100.017	99.9604	200.023
10.53	100.017	99.9604	200.022
10.5325	100.017	99.9605	200.022
10.535	100.017	99.9605	200.022
10.5375	100.017	99.9606	200.022
10.54	100.017	99.9606	200.022
10.5425	100.018	99.9607	200.022
10.545	100.018	99.9607	200.022
10.5475	100.018	99.9607	200.022
10.55	100.018	99.9608	200.021
10.5525	100.018	99.9608	200.021
10.555	100.018	99.9609	200.021
10.5575	100.018	99.9609	200.021
10.56	100.018	99.961	200.021
10.5625	100.018	99.961	200.021
10.565	100.018	99.9611	200.021
10.5675	100.018	99.9611	200.021
10.57	100.018	99.9611	200.02
10.5725	100.018	99.9612	200.02
10.575	100.019	99.9612	200.02
10.5775	100.019	99.9613	200.02
10.58	100.019	99.9613	200.02
10.5825	100.019	99.9614	200.02
10.585	100.019	99.9614	200.02
10.5875	100.019	99.9615	200.02
10.59	100.019	99.9615	200.019
10.5925	100.019	99.9616	200.019
10.595	100.019	99.9616	200.019
10.5975	100.019	99.9617	200.019
10.6	100.019	99.9617	200.019
10.6025	100.019	99.9618	200.019
10.605	100.019	99.9618	200.019
10.6075	100.02	99.9619	200.019
10.61	100.02	99.9619	200.019
10.6125	100.02	99.962	200.018
10.615	100.02	99.962	200.018
10.6175	100.02	99.9621	200.018
10.62	100.02	99.9621	200.018
10.6225	100.02	99.9622	200.018
10.625	100.02	99.9622	200.018
10.6275	100.02	99.9623	200.018
10.63	100.02	99.9623	200.018
10.6325	100.02	99.9624	200.017
10.635	100.02	99.9624	200.017
10.6375	100.02	99.9625	200.017
10.64	100.02	99.9625	200.017
10.6425	100.02	99.9626	200.017
10.645	100.021	99.9626	200.017
10.6475	100.021	99.9627	200.017
10.65	100.021	99.9627	200.017
10.6525	100.021	99.9628	200.017
10.655	100.021	99.9628	200.016
10.6575	100.021	99.9629	200.016
10.66	100.021	99.9629	200.016
10.6625	100.021	99.963	200.016
10.665	100.021	99.963	200.016
10.6675	100.021	99.9631	200.016
10.67	100.021	99.9631	200.016
10.6725	100.021	99.9632	200.016
10.675	100.021	99.9632	200.016
10.6775	100.021	99.9633	200.015
10.68	100.021	99.9633	200.015
10.6825	100.021	99.9634	200.015
10.685	100.021	99.9634	200.015
10.6875	100.022	99.9635	200.015
10.69	100.022	99.9636	200.015
10.6925	100.022	99.9636	200.015
10.695	100.022	99.9637	200.015
10.6975	100.022	99.9637	200.015
10.7	100.022	99.9638	200.014
10.7025	100.022	99.9638	200.014
10.705	100.022	99.9639	200.014
10.7075	100.022	99.9639	200.014
10.71	100.022	99.964	200.014
10.7125	100.022	99.964	200.014
10.715	100.022	99.9641	200.014
10.7175	100.022	99.9642	200.014
10.72	100.022	99.9642	200.014
10.7225	100.022	99.9643	200.013
10.725	100.022	99.9643	200.013
10.7275	100.022	99.9644	200.013
10.73	100.022	99.9644	200.013
10.7325	100.022	99.9645	200.013
10.735	100.023	99.9645	200.013
10.7375	100.023	99.9646	200.013
10.74	100.023	99.9647	200.013
10.7425	100.023	99.9647	200.013
10.745	100.023	99.9648	200.013
10.7475	100.023	99.9648	200.012
10.75	100.023	99.9649	200.012
10.7525	100.023	99.9649	200.012
10.755	100.023	99.965	200.012
10.7575	100.023	99.9651	200.012
10.76	100.023	99.9651	200.012
10.7625	100.023	99.9652	200.012
10.765	100.023	99.9652	200.012
10.7675	100.023	99.9653	200.012
10.77	100.023	99.9653	200.011
10.7725	100.023	99.9654	200.011
10.775	100.023	99.9655	200.011
10.7775	100.023	99.9655	200.011
10.78	100.023	99.9656	200.011
10.7825	100.023	99.9656	200.011
10.785	100.023	99.9657	200.011
10.7875	100.023	99.9658	200.011
10.79	100.023	99.9658	200.011
10.7925	100.024	99.9659	200.011
10.795	100.024	99.9659	200.011
10.7975	100.024	99.966	200.01
10.8	100.024	99.966	200.01
10.8025	100.024	99.9661	200.01
10.805	100.024	99.9662	200.01
10.8075	100.024	99.9662	200.01
10.81	100.024	99.9663	200.01
10.8125	100.024	99.9663	200.01
10.815	100.024	99.9664	200.01
10.8175	100.024	99.9665	200.01
10.82	100.024	99.9665	200.01
10.8225	100.024	99.9666	200.009
10.825	100.024	99.9666	200.009
10.8275	100.024	99.9667	200.009
10.83	100.024	99.9668	200.009
10.8325	100.024	99.9668	200.009
10.835	100.024	99.9669	200.009
10.8375	100.024	99.9669	200.009
10.84	100.024	99.967	200.009
10.8425	100.024	99.9671	200.009
10.845	100.024	99.9671	200.009
10.8475	100.024	99.9672	200.008
10.85	100.024	99.9672	200.008
10.8525	100.024	99.9673	200.008
10.855	100.024	99.9674	200.008
10.8575	100.024	99.9674	200.008
10.86	100.024	99.9675	200.008
10.8625	100.025	99.9676	200.008
10.865	100.025	99.9676	200.008
10.8675	100.025	99.9677	200.008
10.87	100.025	99.9677	200.008
10.8725	100.025	99.9678	200.008
10.875	100.025	99.9679	200.007
10.8775	100.025	99.9679	200.007
10.88	100.025	99.968	200.007
10.8825	100.025	99.968	200.007
10.885	100.025	99.9681	200.007
10.8875	100.025	99.9682	200.007
10.89	100.025	99.9682	200.007
10.8925	100.025	99.9683	200.007
10.895	100.025	99.9684	200.007
10.8975	100.025	99.9684	200.007
10.9	100.025	99.9685	200.007
10.9025	100.025	99.9685	200.007
10.905	100.025	99.9686	200.006
10.9075	100.025	99.9687	200.006
10.91	100.025	99.9687	200.006
10.9125	100.025	99.9688	200.006
10.915	100.025	99.9689	200.006
10.9175	100.025	99.9689	200.006
10.92	100.025	99.969	200.006
10.9225	100.025	99.969	200.006
10.925	100.025	99.9691	200.006
10.9275	100.025	99.9692	200.006
10.93	100.025	99.9692	200.006
10.9325	100.025	99.9693	200.006
10.935	100.025	99.9694	200.005
10.9375	100.025	99.9694	200.005
10.94	100.025	99.9695	200.005
10.9425	100.025	99.9695	200.005
10.945	100.025	99.9696	200.005
10.9475	100.025	99.9697	200.005
10.95	100.025	99.9697	200.005
10.9525	100.025	99.9698	200.005
10.955	100.025	99.9699	200.005
10.9575	100.025	99.9699	200.005
10.96	100.025	99.97	200.005
10.9625	100.025	99.9701	200.005
10.965	100.025	99.9701	200.004
10.9675	100.025	99.9702	200.004
10.97	100.025	99.9702	200.004
10.9725	100.025	99.9703	200.004
10.975	100.026	99.9704	200.004
10.9775	100.026	99.9704	200.004
10.98	100.026	99.9705	200.004
10.9825	100.026	99.9706	200.004
10.985	100.026	99.9706	200.004
10.9875	100.026	99.9707	200.004
10.99	100.026	99.9708	200.004
10.9925	100.026	99.9708	200.004
10.995	100.026	99.9709	200.003
10.9975	100.026	99.9709	200.003
11	100.026	99.971	200.003
11.0025	100.026	99.9711	200.003
11.005	100.026	99.9711	200.003
11.0075	100.026	99.9712	200.003
11.01	100.026	99.9713	200.003
11.0125	100.026	99.9713	200.003
11.015	100.026	99.9714	200.003
11.0175	100.026	99.9715	200.003
11.02	100.026	99.9715	200.003
11.0225	100.026	99.9716	200.003
11.025	100.026	99.9717	200.003
11.0275	100.026	99.9717	200.003
11.03	100.026	99.9718	200.002
11.0325	100.026	99.9718	200.002
11.035	100.026	99.9719	200.002
11.0375	100.026	99.972	200.002
11.04	100.026	99.972	200.002
11.0425	100.026	99.9721	200.002
11.045	100.026	99.9722	200.002
11.0475	100.026	99.9722	200.002
11.05	100.026	99.9723	200.002
11.0525	100.026	99.9724	200.002
11.055	100.026	99.9724	200.002
11.0575	100.026	99.9725	200.002
11.06	100.026	99.9726	200.002
11.0625	100.026	99.9726	200.002
11.065	100.026	99.9727	200.001
11.0675	100.026	99.9727	200.001
11.07	100.026	99.9728	200.001
11.0725	100.026	99.9729	200.001
11.075	100.026	99.9729	200.001
11.0775	100.026	99.973	200.001
11.08	100.026	99.9731	200.001
11.0825	100.026	99.9731	200.001
11.085	100.026	99.9732	200.001
11.0875	100.026	99.9733	200.001
11.09	100.026	99.9733	200.001
11.0925	100.026	99.9734	200.001
11.095	100.026	99.9735	200.001
11.0975	100.026	99.9735	200.001
11.1	100.026	99.9736	200
11.1025	100.026	99.9737	200
11.105	100.026	99.9737	200
11.1075	100.026	99.9738	200
11.11	100.026	99.9739	200
11.1125	100.026	99.9739	200
11.115	100.026	99.974	200
11.1175	100.026	99.974	200
11.12	100.026	99.9741	200
11.1225	100.026	99.9742	200
11.125	100.026	99.9742	200
11.1275	100.026	99.9743	200
11.13	100.026	99.9744	200
11.1325	100.026	99.9744	200
11.135	100.026	99.9745	200
11.1375	100.026	99.9746	200
11.14	100.026	99.9746	199.999
11.1425	100.026	99.9747	199.999
11.145	100.026	99.9748	199.999
11.1475	100.026	99.9748	199.999
11.15	100.026	99.9749	199.999
11.1525	100.026	99.975	199.999
11.155	100.026	99.975	199.999
11.1575	100.026	99.9751	199.999
11.16	100.026	99.9751	199.999
11.1625	100.026	99.9752	199.999
11.165	100.026	99.9753	199.999
11.1675	100.026	99.9753	199.999
11.17	100.026	99.9754	199.999
11.1725	100.026	99.9755	199.999
11.175	100.026	99.9755	199.999
11.1775	100.026	99.9756	199.999
11.18	100.026	99.9757	199.998
11.1825	100.026	99.9757	199.998
11.185	100.026	99.9758	199.998
11.1875	100.026	99.9759	199.998
11.19	100.026	99.9759	199.998
11.1925	100.026	99.976	199.998
11.195	100.026	99.9761	199.998
11.1975	100.026	99.9761	199.998
11.2	100.026	99.9762	199.998
11.2025	100.026	99.9762	199.998
11.205	100.026	99.9763	199.998
11.2075	100.026	99.9764	199.998
11.21	100.026	99.9764	199.998
11.2125	100.026	99.9765	199.998
11.215	100.026	99.9766	199.998
11.2175	100.026	99.9766	199.998
11.22	100.026	99.9767	199.998
11.2225	100.026	99.9768	199.997
11.225	100.026	99.9768	199.997
11.2275	100.026	99.9769	199.997
11.23	100.026	99.977	199.997
11.2325	100.026	99.977	199.997
11.235	100.026	99.9771	199.997
11.2375	100.026	99.9771	199.997
11.24	100.026	99.9772	199.997
11.2425	100.026	99.9773	199.997
11.245	100.026	99.9773	199.997
11.2475	100.026	99.9774	199.997
11.25	100.026	99.9775	199.997
11.2525	100.026	99.9775	199.997
11.255	100.026	99.9776	199.997
11.2575	100.026	99.9777	199.997
11.26	100.026	99.9777	199.997
11.2625	100.026	99.9778	199.997
11.265	100.026	99.9779	199.997
11.2675	100.026	99.9779	199.997
11.27	100.026	99.978	199.996
11.2725	100.026	99.978	199.996
11.275	100.025	99.9781	199.996
11.2775	100.025	99.9782	199.996
11.28	100.025	99.9782	199.996
11.2825	100.025	99.9783	199.996
11.285	100.025	99.9784	199.996
11.2875	100.025	99.9784	199.996
11.29	100.025	99.9785	199.996
11.2925	100.025	99.9786	199.996
11.295	100.025	99.9786	199.996
11.2975	100.025	99.9787	199.996
11.3	100.025	99.9787	199.996
11.3025	100.025	99.9788	199.996
11.305	100.025	99.9789	199.996
11.3075	100.025	99.9789	199.996
11.31	100.025	99.979	199.996
11.3125	100.025	99.9791	199.996
11.315	100.025	99.9791	199.996
11.3175	100.025	99.9792	199.996
11.32	100.025	99.9792	199.996
11.3225	100.025	99.9793	199.995
11.325	100.025	99.9794	199.995
11.3275	100.025	99.9794	199.995
11.33	100.025	99.9795	199.995
11.3325	100.025	99.9796	199.995
11.335	100.025	99.9796	199.995
11.3375	100.025	99.9797	199.995
11.34	100.025	99.9798	199.995
11.3425	100.025	99.9798	199.995
11.345	100.025	99.9799	199.995
11.3475	100.025	99.9799	199.995
11.35	100.025	99.98	199.995
11.3525	100.025	99.9801	199.995
11.355	100.025	99.9801	199.995
11.3575	100.025	99.9802	199.995
11.36	100.025	99.9803	199.995
11.3625	100.025	99.9803	199.995
11.365	100.025	99.9804	199.995
11.3675	100.025	99.9804	199.995
11.37	100.025	99.9805	199.995
11.3725	100.025	99.9806	199.995
11.375	100.025	99.9806	199.995
11.3775	100.025	99.9807	199.995
11.38	100.025	99.9807	199.994
11.3825	100.025	99.9808	199.994
11.385	100.025	99.9809	199.994
11.3875	100.025	99.9809	199.994
11.39	100.025	99.981	199.994
11.3925	100.025	99.9811	199.994
11.395	100.025	99.9811	199.994
11.3975	100.025	99.9812	199.994
11.4	100.025	99.9812	199.994
11.4025	100.025	99.9813	199.994
11.405	100.025	99.9814	199.994
11.4075	100.025	99.9814	199.994
11.41	100.025	99.9815	199.994
11.4125	100.024	99.9815	199.994
11.415	100.024	99.9816	199.994
11.4175	100.024	99.9817	199.994
11.42	100.024	99.9817	199.994
11.4225	100.024	99.9818	199.994
11.425	100.024	99.9819	199.994
11.4275	100.024	99.9819	199.994
11.43	100.024	99.982	199.994
11.4325	100.024	99.982	199.994
11.435	100.024	99.9821	199.994
11.4375	100.024	99.9822	199.994
11.44	100.024	99.9822	199.994
11.4425	100.024	99.9823	199.994
11.445	100.024	99.9823	199.993
11.4475	100.024	99.9824	199.993
11.45	100.024	99.9825	199.993
11.4525	100.024	99.9825	199.993
11.455	100.024	99.9826	199.993
11.4575	100.024	99.9826	199.993
11.46	100.024	99.9827	199.993
11.4625	100.024	99.9828	199.993
11.465	100.024	99.9828	199.993
11.4675	100.024	99.9829	199.993
11.47	100.024	99.9829	199.993
11.4725	100.024	99.983	199.993
11.475	100.024	99.9831	199.993
11.4775	100.024	99.9831	199.993
11.48	100.024	99.9832	199.993
11.4825	100.024	99.9832	199.993
11.485	100.024	99.9833	199.993
11.4875	100.024	99.9834	199.993
11.49	100.024	99.9834	199.993
11.4925	100.024	99.9835	199.993
11.495	100.024	99.9835	199.993
11.4975	100.024	99.9836	199.993
11.5	100.024	99.9837	199.993
11.5025	100.024	99.9837	199.993
11.505	100.024	99.9838	199.993
11.5075	100.024	99.9838	199.993
11.51	100.024	99.9839	199.993
11.5125	100.023	99.9839	199.993
11.515	100.023	99.984	199.993
11.5175	100.023	99.9841	199.993
11.52	100.023	99.9841	199.992
11.5225	100.023	99.9842	199.992
11.525	100.023	99.9842	199.992
11.5275	100.023	99.9843	199.992
11.53	100.023	99.9844	199.992
11.5325	100.023	99.9844	199.992
11.535	100.023	99.9845	199.992
11.5375	100.023	99.9845	199.992
11.54	100.023	99.9846	199.992
11.5425	100.023	99.9846	199.992
11.545	100.023	99.9847	199.992
11.5475	100.023	99.9848	199.992
11.55	100.023	99.9848	199.992
11.5525	100.023	99.9849	199.992
11.555	100.023	99.9849	199.992
11.5575	100.023	99.985	199.992
11.56	100.023	99.9851	199.992
11.5625	100.023	99.9851	199.992
11.565	100.023	99.9852	199.992
11.5675	100.023	99.9852	199.992
11.57	100.023	99.9853	199.992
11.5725	100.023	99.9853	199.992
11.575	100.023	99.9854	199.992
11.5775	100.023	99.9855	199.992
11.58	100.023	99.9855	199.992
11.5825	100.023	99.9856	199.992
11.585	100.023	99.9856	199.992
11.5875	100.023	99.9857	199.992
11.59	100.023	99.9857	199.992
11.5925	100.023	99.9858	199.992
11.595	100.023	99.9858	199.992
11.5975	100.022	99.9859	199.992
11.6	100.022	99.986	199.992
11.6025	100.022	99.986	199.992
11.605	100.022	99.9861	199.992
11.6075	100.022	99.9861	199.992
11.61	100.022	99.9862	199.992
11.6125	100.022	99.9862	199.991
11.615	100.022	99.9863	199.991
11.6175	100.022	99.9863	199.991
11.62	100.022	99.9864	199.991
11.6225	100.022	99.9865	199.991
11.625	100.022	99.9865	199.991
11.6275	100.022	99.9866	199.991
11.63	100.022	99.9866	199.991
11.6325	100.022	99.9867	199.991
11.635	100.022	99.9867	199.991
11.6375	100.022	99.9868	199.991
11.64	100.022	99.9868	199.991
11.6425	100.022	99.9869	199.991
11.645	100.022	99.987	199.991
11.6475	100.022	99.987	199.991
11.65	100.022	99.9871	199.991
11.6525	100.022	99.9871	199.991
11.655	100.022	99.9872	199.991
11.6575	100.022	99.9872	199.991
11.66	100.022	99.9873	199.991
11.6625	100.022	99.9873	199.991
11.665	100.022	99.9874	199.991
11.6675	100.022	99.9874	199.991
11.67	100.022	99.9875	199.991
11.6725	100.021	99.9876	199.991
11.675	100.021	99.9876	199.991
11.6775	100.021	99.9877	199.991
11.68	100.021	99.9877	199.991
11.6825	100.021	99.9878	199.991
11.685	100.021	99.9878	199.991
11.6875	100.021	99.9879	199.991
11.69	100.021	99.9879	199.991
11.6925	100.021	99.988	199.991
11.695	100.021	99.988	199.991
11.6975	100.021	99.9881	199.991
11.7	100.021	99.9881	199.991
11.7025	100.021	99.9882	199.991
11.705	100.021	99.9882	199.991
11.7075	100.021	99.9883	199.991
11.71	100.021	99.9883	199.991
11.7125	100.021	99.9884	199.991
11.715	100.021	99.9885	199.991
11.7175	100.021	99.9885	199.991
11.72	100.021	99.9886	199.991
11.7225	100.021	99.9886	199.991
11.725	100.021	99.9887	199.991
11.7275	100.021	99.9887	199.991
11.73	100.021	99.9888	199.991
11.7325	100.021	99.9888	199.991
11.735	100.021	99.9889	199.991
11.7375	100.021	99.9889	199.99
11.74	100.021	99.989	199.99
11.7425	100.021	99.989	199.99
11.745	100.02	99.9891	199.99
11.7475	100.02	99.9891	199.99
11.75	100.02	99.9892	199.99
11.7525	100.02	99.9892	199.99
11.755	100.02	99.9893	199.99
11.7575	100.02	99.9893	199.99
11.76	100.02	99.9894	199.99
11.7625	100.02	99.9894	199.99
11.765	100.02	99.9895	199.99
11.7675	100.02	99.9895	199.99
11.77	100.02	99.9896	199.99
11.7725	100.02	99.9896	199.99
11.775	100.02	99.9897	199.99
11.7775	100.02	99.9897	199.99
11.78	100.02	99.9898	199.99
11.7825	100.02	99.9898	199.99
11.785	100.02	99.9899	199.99
11.7875	100.02	99.9899	199.99
11.79	100.02	99.99	199.99
11.7925	100.02	99.99	199.99
11.795	100.02	99.9901	199.99
11.7975	100.02	99.9901	199.99
11.8	100.02	99.9902	199.99
11.8025	100.02	99.9902	199.99
11.805	100.02	99.9903	199.99
11.8075	100.02	99.9903	199.99
11.81	100.02	99.9904	199.99
11.8125	100.019	99.9904	199.99
11.815	100.019	99.9905	199.99
11.8175	100.019	99.9905	199.99
11.82	100.019	99.9906	199.99
11.8225	100.019	99.9906	199.99
11.825	100.019	99.9907	199.99
11.8275	100.019	99.9907	199.99
11.83	100.019	99.9908	199.99
11.8325	100.019	99.9908	199.99
11.835	100.019	99.9909	199.99
11.8375	100.019	99.9909	199.99
11.84	100.019	99.991	199.99
11.8425	100.019	99.991	199.99
11.845	100.019	99.991	199.99
11.8475	100.019	99.9911	199.99
11.85	100.019	99.9911	199.99
11.8525	100.019	99.9912	199.99
11.855	100.019	99.9912	199.99
11.8575	100.019	99.9913	199.99
11.86	100.019	99.9913	199.99
11.8625	100.019	99.9914	199.99
11.865	100.019	99.9914	199.99
11.8675	100.019	99.9915	199.99
11.87	100.019	99.9915	199.99
11.8725	100.019	99.9916	199.99
11.875	100.019	99.9916	199.99
11.8775	100.019	99.9917	199.99
11.88	100.018	99.9917	199.99
11.8825	100.018	99.9917	199.99
11.885	100.018	99.9918	199.99
11.8875	100.018	99.9918	199.99
11.89	100.018	99.9919	199.99
11.8925	100.018	99.9919	199.99
11.895	100.018	99.992	199.99
11.8975	100.018	99.992	199.99
11.9	100.018	99.9921	199.99
11.9025	100.018	99.9921	199.99
11.905	100.018	99.9922	199.99
11.9075	100.018	99.9922	199.99
11.91	100.018	99.9923	199.99
11.9125	100.018	99.9923	199.99
11.915	100.018	99.9923	199.99
11.9175	100.018	99.9924	199.99
11.92	100.018	99.9924	199.99
11.9225	100.018	99.9925	199.99
11.925	100.018	99.9925	199.99
11.9275	100.018	99.9926	199.99
11.93	100.018	99.9926	199.99
11.9325	100.018	99.9927	199.99
11.935	100.018	99.9927	199.99
11.9375	100.018	99.9927	199.99
11.94	100.018	99.9928	199.99
11.9425	100.018	99.9928	199.99
11.945	100.017	99.9929	199.99
11.9475	100.017	99.9929	199.99
11.95	100.017	99.993	199.99
11.9525	100.017	99.993	199.99
11.955	100.017	99.993	199.99
11.9575	100.017	99.9931	199.99
11.96	100.017	99.9931	199.99
11.9625	100.017	99.9932	199.99
11.965	100.017	99.9932	199.99
11.9675	100.017	99.9933	199.99
11.97	100.017	99.9933	199.99
11.9725	100.017	99.9933	199.99
11.975	100.017	99.9934	199.99
11.9775	100.017	99.9934	199.99
11.98	100.017	99.9935	199.99
11.9825	100.017	99.9935	199.99
11.985	100.017	99.9936	199.99
11.9875	100.017	99.9936	199.99
11.99	100.017	99.9936	199.99
11.9925	100.017	99.9937	199.99
11.995	100.017	99.9937	199.99
11.9975	100.017	99.9938	199.99
12	100.017	99.9938	199.99
12.0025	100.017	99.9939	199.99
12.005	100.017	99.9939	199.99
12.0075	100.016	99.9939	199.99
12.01	100.016	99.994	199.99
12.0125	100.016	99.994	199.99
12.015	100.016	99.9941	199.99
12.0175	100.016	99.9941	199.99
12.02	100.016	99.9941	199.99
12.0225	100.016	99.9942	199.99
12.025	100.016	99.9942	199.99
12.0275	100.016	99.9943	199.99
12.03	100.016	99.9943	199.99
12.0325	100.016	99.9943	199.99
12.035	100.016	99.9944	199.99
12.0375	100.016	99.9944	199.99
12.04	100.016	99.9945	199.99
12.0425	100.016	99.9945	199.99
12.045	100.016	99.9945	199.99
12.0475	100.016	99.9946	199.99
12.05	100.016	99.9946	199.99
12.0525	100.016	99.9947	199.99
12.055	100.016	99.9947	199.99
12.0575	100.016	99.9947	199.99
12.06	100.016	99.9948	199.99
12.0625	100.016	99.9948	199.99
12.065	100.016	99.9949	199.99
12.0675	100.016	99.9949	199.99
12.07	100.016	99.9949	199.99
12.0725	100.015	99.995	199.99
12.075	100.015	99.995	199.99
12.0775	100.015	99.995	199.99
12.08	100.015	99.9951	199.99
12.0825	100.015	99.9951	199.99
12.085	100.015	99.9952	199.99
12.0875	100.015	99.9952	199.99
12.09	100.015	99.9952	199.99
12.0925	100.015	99.9953	199.99
12.095	100.015	99.9953	199.99
12.0975	100.015	99.9954	199.99
12.1	100.015	99.9954	199.99
12.1025	100.015	99.9954	199.99
12.105	100.015	99.9955	199.99
12.1075	100.015	99.9955	199.99
12.11	100.015	99.9955	199.99
12.1125	100.015	99.9956	199.99
12.115	100.015	99.9956	199.99
12.1175	100.015	99.9957	199.99
12.12	100.015	99.9957	199.99
12.1225	100.015	99.9957	199.99
12.125	100.015	99.9958	199.99
12.1275	100.015	99.9958	199.99
12.13	100.015	99.9958	199.99
12.1325	100.015	99.9959	199.99
12.135	100.015	99.9959	199.99
12.1375	100.014	99.9959	199.99
12.14	100.014	99.996	199.99
12.1425	100.014	99.996	199.99
12.145	100.014	99.9961	199.99
12.1475	100.014	99.9961	199.99
12.15	100.014	99.9961	199.99
12.1525	100.014	99.9962	199.99
12.155	100.014	99.9962	199.99
12.1575	100.014	99.9962	199.99
12.16	100.014	99.9963	199.99
12.1625	100.014	99.9963	199.99
12.165	100.014	99.9963	199.99
12.1675	100.014	99.9964	199.99
12.17	100.014	99.9964	199.99
12.1725	100.014	99.9964	199.99
12.175	100.014	99.9965	199.99
12.1775	100.014	99.9965	199.99
12.18	100.014	99.9965	199.99
12.1825	100.014	99.9966	199.99
12.185	100.014	99.9966	199.99
12.1875	100.014	99.9966	199.99
12.19	100.014	99.9967	199.99
12.1925	100.014	99.9967	199.99
12.195	100.014	99.9968	199.99
12.1975	100.014	99.9968	199.99
12.2	100.013	99.9968	199.99
12.2025	100.013	99.9969	199.99
12.205	100.013	99.9969	199.99
12.2075	100.013	99.9969	199.99
12.21	100.013	99.997	199.99
12.2125	100.013	99.997	199.99
12.215	100.013	99.997	199.99
12.2175	100.013	99.9971	199.99
12.22	100.013	99.9971	199.99
12.2225	100.013	99.9971	199.99
12.225	100.013	99.9972	199.99
12.2275	100.013	99.9972	199.99
12.23	100.013	99.9972	199.99
12.2325	100.013	99.9972	199.99
12.235	100.013	99.9973	199.99
12.2375	100.013	99.9973	199.99
12.24	100.013	99.9973	199.99
12.2425	100.013	99.9974	199.99
12.245	100.013	99.9974	199.99
12.2475	100.013	99.9974	199.99
12.25	100.013	99.9975	199.99
12.2525	100.013	99.9975	199.99
12.255	100.013	99.9975	199.99
12.2575	100.013	99.9976	199.99
12.26	100.013	99.9976	199.99
12.2625	100.013	99.9976	199.99
12.265	100.012	99.9977	199.99
12.2675	100.012	99.9977	199.99
12.27	100.012	99.9977	199.99
12.2725	100.012	99.9978	199.99
12.275	100.012	99.9978	199.99
12.2775	100.012	99.9978	199.99
12.28	100.012	99.9978	199.99
12.2825	100.012	99.9979	199.99
12.285	100.012	99.9979	199.99
12.2875	100.012	99.9979	199.99
12.29	100.012	99.998	199.99
12.2925	100.012	99.998	199.99
12.295	100.012	99.998	199.99
12.2975	100.012	99.9981	199.99
12.3	100.012	99.9981	199.99
12.3025	100.012	99.9981	199.99
12.305	100.012	99.9982	199.99
12.3075	100.012	99.9982	199.99
12.31	100.012	99.9982	199.99
12.3125	100.012	99.9982	199.99
12.315	100.012	99.9983	199.99
12.3175	100.012	99.9983	199.99
12.32	100.012	99.9983	199.99
12.3225	100.012	99.9984	199.99
12.325	100.012	99.9984	199.99
12.3275	100.012	99.9984	199.99
12.33	100.012	99.9984	199.99
12.3325	100.011	99.9985	199.99
12.335	100.011	99.9985	199.99
12.3375	100.011	99.9985	199.99
12.34	100.011	99.9986	199.99
12.3425	100.011	99.9986	199.99
12.345	100.011	99.9986	199.99
12.3475	100.011	99.9986	199.99
12.35	100.011	99.9987	199.99
12.3525	100.011	99.9987	199.99
12.355	100.011	99.9987	199.99
12.3575	100.011	99.9988	199.99
12.36	100.011	99.9988	199.99
12.3625	100.011	99.9988	199.99
12.365	100.011	99.9988	199.99
12.3675	100.011	99.9989	199.99
12.37	100.011	99.9989	199.99
12.3725	100.011	99.9989	199.99
12.375	100.011	99.9989	199.99
12.3775	100.011	99.999	199.99
12.38	100.011	99.999	199.99
12.3825	100.011	99.999	199.99
12.385	100.011	99.9991	199.99
12.3875	100.011	99.9991	199.99
12.39	100.011	99.9991	199.99
12.3925	100.011	99.9991	199.99
12.395	100.011	99.9992	199.99
12.3975	100.011	99.9992	199.99
12.4	100.01	99.9992	199.99
12.4025	100.01	99.9992	199.99
12.405	100.01	99.9993	199.99
12.4075	100.01	99.9993	199.99
12.41	100.01	99.9993	199.99
12.4125	100.01	99.9993	199.99
12.415	100.01	99.9994	199.99
12.4175	100.01	99.9994	199.99
12.42	100.01	99.9994	199.99
12.4225	100.01	99.9994	199.99
12.425	100.01	99.9995	199.99
12.4275	100.01	99.9995	199.99
12.43	100.01	99.9995	199.99
12.4325	100.01	99.9995	199.99
12.435	100.01	99.9996	199.99
12.4375	100.01	99.9996	199.99
12.44	100.01	99.9996	199.99
12.4425	100.01	99.9996	199.99
12.445	100.01	99.9997	199.99
12.4475	100.01	99.9997	199.991
12.45	100.01	99.9997	199.991
12.4525	100.01	99.9997	199.991
12.455	100.01	99.9998	199.991
12.4575	100.01	99.9998	199.991
12.46	100.01	99.9998	199.991
12.4625	100.01	99.9998	199.991
12.465	100.01	99.9999	199.991
12.4675	100.01	99.9999	199.991
12.47	100.009	99.9999	199.991
12.4725	100.009	99.9999	199.991
12.475	100.009	100	199.991
12.4775	100.009	100	199.991
12.48	100.009	100	199.991
12.4825	100.009	100	199.991
12.485	100.009	100	199.991
12.4875	100.009	100	199.991
12.49	100.009	100	199.991
12.4925	100.009	100	199.991
12.495	100.009	100	199.991
12.4975	100.009	100	199.991
12.5	100.009	100	199.991
12.5025	100.009	100	199.991
12.505	100.009	100	199.991
12.5075	100.009	100	199.991
12.51	100.009	100	199.991
12.5125	100.009	100	199.991
12.515	100.009	100	199.991
12.5175	100.009	100	199.991
12.52	100.009	100	199.991
12.5225	100.009	100	199.991
12.525	100.009	100	199.991
12.5275	100.009	100	199.991
12.53	100.009	100	199.991
12.5325	100.009	100	199.991
12.535	100.009	100	199.991
12.5375	100.009	100.001	199.991
12.54	100.009	100.001	199.991
12.5425	100.008	100.001	199.991
12.545	100.008	100.001	199.991
12.5475	100.008	100.001	199.991
12.55	100.008	100.001	199.991
12.5525	100.008	100.001	199.991
12.555	100.008	100.001	199.991
12.5575	100.008	100.001	199.991
12.56	100.008	100.001	199.991
12.5625	100.008	100.001	199.991
12.565	100.008	100.001	199.991
12.5675	100.008	100.001	199.991
12.57	100.008	100.001	199.991
12.5725	100.008	100.001	199.991
12.575	100.008	100.001	199.991
12.5775	100.008	100.001	199.991
12.58	100.008	100.001	199.991
12.5825	100.008	100.001	199.991
12.585	100.008	100.001	199.991
12.5875	100.008	100.001	199.991
12.59	100.008	100.001	199.991
12.5925	100.008	100.001	199.991
12.595	100.008	100.001	199.991
12.5975	100.008	100.001	199.991
12.6	100.008	100.001	199.991
12.6025	100.008	100.001	199.991
12.605	100.008	100.001	199.991
12.6075	100.008	100.001	199.991
12.61	100.008	100.001	199.991
12.6125	100.008	100.001	199.991
12.615	100.008	100.001	199.991
12.6175	100.007	100.001	199.991
12.62	100.007	100.001	199.991
12.6225	100.007	100.001	199.991
12.625	100.007	100.001	199.991
12.6275	100.007	100.001	199.991
12.63	100.007	100.001	199.991
12.6325	100.007	100.001	199.991
12.635	100.007	100.001	199.991
12.6375	100.007	100.001	199.991
12.64	100.007	100.001	199.991
12.6425	100.007	100.001	199.991
12.645	100.007	100.001	199.992
12.6475	100.007	100.001	199.992
12.65	100.007	100.001	199.992
12.6525	100.007	100.001	199.992
12.655	100.007	100.001	199.992
12.6575	100.007	100.001	199.992
12.66	100.007	100.001	199.992
12.6625	100.007	100.001	199.992
12.665	100.007	100.002	199.992
12.6675	100.007	100.002	199.992
12.67	100.007	100.002	199.992
12.6725	100.007	100.002	199.992
12.675	100.007	100.002	199.992
12.6775	100.007	100.002	199.992
12.68	100.007	100.002	199.992
12.6825	100.007	100.002	199.992
12.685	100.007	100.002	199.992
12.6875	100.007	100.002	199.992
12.69	100.007	100.002	199.992
12.6925	100.007	100.002	199.992
12.695	100.007	100.002	199.992
12.6975	100.006	100.002	199.992
12.7	100.006	100.002	199.992
12.7025	100.006	100.002	199.992
12.705	100.006	100.002	199.992
12.7075	100.006	100.002	199.992
12.71	100.006	100.002	199.992
12.7125	100.006	100.002	199.992
12.715	100.006	100.002	199.992
12.7175	100.006	100.002	199.992
12.72	100.006	100.002	199.992
12.7225	100.006	100.002	199.992
12.725	100.006	100.002	199.992
12.7275	100.006	100.002	199.992
12.73	100.006	100.002	199.992
12.7325	100.006	100.002	199.992
12.735	100.006	100.002	199.992
12.7375	100.006	100.002	199.992
12.74	100.006	100.002	199.992
12.7425	100.006	100.002	199.992
12.745	100.006	100.002	199.992
12.7475	100.006	100.002	199.992
12.75	100.006	100.002	199.992
12.7525	100.006	100.002	199.992
12.755	100.006	100.002	199.992
12.7575	100.006	100.002	199.992
12.76	100.006	100.002	199.992
12.7625	100.006	100.002	199.992
12.765	100.006	100.002	199.992
12.7675	100.006	100.002	199.992
12.77	100.006	100.002	199.992
12.7725	100.006	100.002	199.992
12.775	100.006	100.002	199.992
12.7775	100.006	100.002	199.992
12.78	100.005	100.002	199.992
12.7825	100.005	100.002	199.992
12.785	100.005	100.002	199.992
12.7875	100.005	100.002	199.992
12.79	100.005	100.002	199.992
12.7925	100.005	100.002	199.992
12.795	100.005	100.002	199.992
12.7975	100.005	100.002	199.992
12.8	100.005	100.002	199.992
12.8025	100.005	100.002	199.992
12.805	100.005	100.002	199.992
12.8075	100.005	100.002	199.992
12.81	100.005	100.002	199.992
12.8125	100.005	100.002	199.992
12.815	100.005	100.002	199.993
12.8175	100.005	100.002	199.993
12.82	100.005	100.002	199.993
12.8225	100.005	100.002	199.993
12.825	100.005	100.002	199.993
12.8275	100.005	100.002	199.993
12.83	100.005	100.002	199.993
12.8325	100.005	100.002	199.993
12.835	100.005	100.002	199.993
12.8375	100.005	100.003	199.993
12.84	100.005	100.003	199.993
12.8425	100.005	100.003	199.993
12.845	100.005	100.003	199.993
12.8475	100.005	100.003	199.993
12.85	100.005	100.003	199.993
12.8525	100.005	100.003	199.993
12.855	100.005	100.003	199.993
12.8575	100.005	100.003	199.993
12.86	100.005	100.003	199.993
12.8625	100.005	100.003	199.993
12.865	100.005	100.003	199.993
12.8675	100.005	100.003	199.993
12.87	100.004	100.003	199.993
12.8725	100.004	100.003	199.993
12.875	100.004	100.003	199.993
12.8775	100.004	100.003	199.993
12.88	100.004	100.003	199.993
12.8825	100.004	100.003	199.993
12.885	100.004	100.003	199.993
12.8875	100.004	100.003	199.993
12.89	100.004	100.003	199.993
12.8925	100.004	100.003	199.993
12.895	100.004	100.003	199.993
12.8975	100.004	100.003	199.993
12.9	100.004	100.003	199.993
12.9025	100.004	100.003	199.993
12.905	100.004	100.003	199.993
12.9075	100.004	100.003	199.993
12.91	100.004	100.003	199.993
12.9125	100.004	100.003	199.993
12.915	100.004	100.003	199.993
12.9175	100.004	100.003	199.993
12.92	100.004	100.003	199.993
12.9225	100.004	100.003	199.993
12.925	100.004	100.003	199.993
12.9275	100.004	100.003	199.993
12.93	100.004	100.003	199.993
12.9325	100.004	100.003	199.993
12.935	100.004	100.003	199.993
12.9375	100.004	100.003	199.993
12.94	100.004	100.003	199.993
12.9425	100.004	100.003	199.993
12.945	100.004	100.003	199.993
12.9475	100.004	100.003	199.993
12.95	100.004	100.003	199.993
12.9525	100.004	100.003	199.993
12.955	100.004	100.003	199.993
12.9575	100.004	100.003	199.993
12.96	100.004	100.003	199.993
12.9625	100.004	100.003	199.993
12.965	100.004	100.003	199.993
12.9675	100.003	100.003	199.993
12.97	100.003	100.003	199.993
12.9725	100.003	100.003	199.993
12.975	100.003	100.003	199.994
12.9775	100.003	100.003	199.994
12.98	100.003	100.003	199.994
12.9825	100.003	100.003	199.994
12.985	100.003	100.003	199.994
12.9875	100.003	100.003	199.994
12.99	100.003	100.003	199.994
12.9925	100.003	100.003	199.994
12.995	100.003	100.003	199.994
12.9975	100.003	100.003	199.994
13	100.003	100.003	199.994
13.0025	100.003	100.003	199.994
13.005	100.003	100.003	199.994
13.0075	100.003	100.003	199.994
13.01	100.003	100.003	199.994
13.0125	100.003	100.003	199.994
13.015	100.003	100.003	199.994
13.0175	100.003	100.003	199.994
13.02	100.003	100.003	199.994
13.0225	100.003	100.003	199.994
13.025	100.003	100.003	199.994
13.0275	100.003	100.003	199.994
13.03	100.003	100.003	199.994
13.0325	100.003	100.003	199.994
13.035	100.003	100.003	199.994
13.0375	100.003	100.003	199.994
13.04	100.003	100.003	199.994
13.0425	100.003	100.003	199.994
13.045	100.003	100.003	199.994
13.0475	100.003	100.003	199.994
13.05	100.003	100.003	199.994
13.0525	100.003	100.003	199.994
13.055	100.003	100.003	199.994
13.0575	100.003	100.003	199.994
13.06	100.003	100.003	199.994
13.0625	100.003	100.003	199.994
13.065	100.003	100.003	199.994
13.0675	100.003	100.003	199.994
13.07	100.003	100.003	199.994
13.0725	100.003	100.003	199.994
13.075	100.002	100.003	199.994
13.0775	100.002	100.003	199.994
13.08	100.002	100.003	199.994
13.0825	100.002	100.003	199.994
13.085	100.002	100.003	199.994
13.0875	100.002	100.003	199.994
13.09	100.002	100.003	199.994
13.0925	100.002	100.003	199.994
13.095	100.002	100.003	199.994
13.0975	100.002	100.003	199.994
13.1	100.002	100.003	199.994
13.1025	100.002	100.003	199.994
13.105	100.002	100.003	199.994
13.1075	100.002	100.003	199.994
13.11	100.002	100.003	199.994
13.1125	100.002	100.003	199.994
13.115	100.002	100.003	199.994
13.1175	100.002	100.003	199.994
13.12	100.002	100.003	199.994
13.1225	100.002	100.003	199.994
13.125	100.002	100.003	199.994
13.1275	100.002	100.003	199.994
13.13	100.002	100.003	199.994
13.1325	100.002	100.003	199.995
13.135	100.002	100.004	199.995
13.1375	100.002	100.004	199.995
13.14	100.002	100.004	199.995
13.1425	100.002	100.004	199.995
13.145	100.002	100.004	199.995
13.1475	100.002	100.004	199.995
13.15	100.002	100.004	199.995
13.1525	100.002	100.004	199.995
13.155	100.002	100.004	199.995
13.1575	100.002	100.004	199.995
13.16	100.002	100.004	199.995
13.1625	100.002	100.004	199.995
13.165	100.002	100.004	199.995
13.1675	100.002	100.004	199.995
13.17	100.002	100.004	199.995
13.1725	100.002	100.004	199.995
13.175	100.002	100.004	199.995
13.1775	100.002	100.004	199.995
13.18	100.002	100.004	199.995
13.1825	100.002	100.004	199.995
13.185	100.002	100.004	199.995
13.1875	100.002	100.004	199.995
13.19	100.002	100.004	199.995
13.1925	100.002	100.004	199.995
13.195	100.002	100.004	199.995
13.1975	100.001	100.004	199.995
13.2	100.001	100.004	199.995
13.2025	100.001	100.004	199.995
13.205	100.001	100.004	199.995
13.2075	100.001	100.004	199.995
13.21	100.001	100.004	199.995
13.2125	100.001	100.004	199.995
13.215	100.001	100.004	199.995
13.2175	100.001	100.004	199.995
13.22	100.001	100.004	199.995
13.2225	100.001	100.004	199.995
13.225	100.001	100.004	199.995
13.2275	100.001	100.004	199.995
13.23	100.001	100.004	199.995
13.2325	100.001	100.004	199.995
13.235	100.001	100.004	199.995
13.2375	100.001	100.004	199.995
13.24	100.001	100.004	199.995
13.2425	100.001	100.004	199.995
13.245	100.001	100.004	199.995
13.2475	100.001	100.004	199.995
13.25	100.001	100.004	199.995
13.2525	100.001	100.004	199.995
13.255	100.001	100.004	199.995
13.2575	100.001	100.004	199.995
13.26	100.001	100.004	199.995
13.2625	100.001	100.004	199.995
13.265	100.001	100.004	199.995
13.2675	100.001	100.004	199.995
13.27	100.001	100.004	199.995
13.2725	100.001	100.004	199.995
13.275	100.001	100.004	199.995
13.2775	100.001	100.004	199.995
13.28	100.001	100.004	199.995
13.2825	100.001	100.004	199.995
13.285	100.001	100.004	199.995
13.2875	100.001	100.004	199.995
13.29	100.001	100.004	199.995
13.2925	100.001	100.004	199.995
13.295	100.001	100.004	199.996
13.2975	100.001	100.004	199.996
13.3	100.001	100.004	199.996
13.3025	100.001	100.004	199.996
13.305	100.001	100.004	199.996
13.3075	100.001	100.004	199.996
13.31	100.001	100.004	199.996
13.3125	100.001	100.004	199.996
13.315	100.001	100.004	199.996
13.3175	100.001	100.004	199.996
13.32	100.001	100.004	199.996
13.3225	100.001	100.004	199.996
13.325	100.001	100.004	199.996
13.3275	100.001	100.004	199.996
13.33	100.001	100.004	199.996
13.3325	100.001	100.004	199.996
13.335	100.001	100.004	199.996
13.3375	100.001	100.004	199.996
13.34	100	100.004	199.996
13.3425	100	100.004	199.996
13.345	100	100.004	199.996
13.3475	100	100.004	199.996
13.35	100	100.004	199.996
13.3525	100	100.004	199.996
13.355	100	100.004	199.996
13.3575	100	100.004	199.996
13.36	100	100.004	199.996
13.3625	100	100.004	199.996
13.365	100	100.004	199.996
13.3675	100	100.004	199.996
13.37	100	100.004	199.996
13.3725	100	100.004	199.996
13.375	100	100.004	199.996
13.3775	100	100.004	199.996
13.38	100	100.004	199.996
13.3825	100	100.004	199.996
13.385	100	100.004	199.996
13.3875	100	100.004	199.996
13.39	100	100.004	199.996
13.3925	100	100.004	199.996
13.395	100	100.004	199.996
13.3975	100	100.004	199.996
13.4	100	100.004	199.996
13.4025	100	100.004	199.996
13.405	100	100.004	199.996
13.4075	100	100.004	199.996
13.41	100	100.004	199.996
13.4125	100	100.004	199.996
13.415	100	100.004	199.996
13.4175	100	100.004	199.996
13.42	100	100.004	199.996
13.4225	100	100.004	199.996
13.425	100	100.004	199.996
13.4275	100	100.004	199.996
13.43	99.9999	100.004	199.996
13.4325	99.9999	100.004	199.996
13.435	99.9999	100.004	199.996
13.4375	99.9999	100.004	199.996
13.44	99.9999	100.004	199.996
13.4425	99.9999	100.004	199.996
13.445	99.9999	100.004	199.996
13.4475	99.9999	100.004	199.996
13.45	99.9998	100.004	199.996
13.4525	99.9998	100.004	199.996
13.455	99.9998	100.004	199.996
13.4575	99.9998	100.004	199.996
13.46	99.9998	100.004	199.996
13.4625	99.9998	100.004	199.996
13.465	99.9998	100.004	199.996
13.4675	99.9997	100.004	199.996
13.47	99.9997	100.004	199.997
13.4725	99.9997	100.004	199.997
13.475	99.9997	100.004	199.997
13.4775	99.9997	100.004	199.997
13.48	99.9997	100.004	199.997
13.4825	99.9997	100.004	199.997
13.485	99.9997	100.004	199.997
13.4875	99.9996	100.004	199.997
13.49	99.9996	100.004	199.997
13.4925	99.9996	100.004	199.997
13.495	99.9996	100.004	199.997
13.4975	99.9996	100.004	199.997
13.5	99.9996	100.004	199.997
13.5025	99.9996	100.004	199.997
13.505	99.9996	100.004	199.997
13.5075	99.9995	100.004	199.997
13.51	99.9995	100.004	199.997
13.5125	99.9995	100.004	199.997
13.515	99.9995	100.004	199.997
13.5175	99.9995	100.004	199.997
13.52	99.9995	100.004	199.997
13.5225	99.9995	100.004	199.997
13.525	99.9995	100.004	199.997
13.5275	99.9994	100.004	199.997
13.53	99.9994	100.004	199.997
13.5325	99.9994	100.004	199.997
13.535	99.9994	100.004	199.997
13.5375	99.9994	100.004	199.997
13.54	99.9994	100.004	199.997
13.5425	99.9994	100.004	199.997
13.545	99.9994	100.004	199.997
13.5475	99.9994	100.004	199.997
13.55	99.9993	100.004	199.997
13.5525	99.9993	100.004	199.997
13.555	99.9993	100.004	199.997
13.5575	99.9993	100.004	199.997
13.56	99.9993	100.004	199.997
13.5625	99.9993	100.004	199.997
13.565	99.9993	100.004	199.997
13.5675	99.9993	100.004	199.997
13.57	99.9993	100.004	199.997
13.5725	99.9992	100.004	199.997
13.575	99.9992	100.004	199.997
13.5775	99.9992	100.004	199.997
13.58	99.9992	100.004	199.997
13.5825	99.9992	100.004	199.997
13.585	99.9992	100.004	199.997
13.5875	99.9992	100.004	199.997
13.59	99.9992	100.004	199.997
13.5925	99.9992	100.004	199.997
13.595	99.9991	100.004	199.997
13.5975	99.9991	100.004	199.997
13.6	99.9991	100.004	199.997
13.6025	99.9991	100.004	199.997
13.605	99.9991	100.004	199.997
13.6075	99.9991	100.004	199.997
13.61	99.9991	100.004	199.997
13.6125	99.9991	100.004	199.997
13.615	99.9991	100.004	199.997
13.6175	99.999	100.004	199.997
13.62	99.999	100.004	199.997
13.6225	99.999	100.004	199.997
13.625	99.999	100.004	199.997
13.6275	99.999	100.004	199.997
13.63	99.999	100.004	199.997
13.6325	99.999	100.004	199.997
13.635	99.999	100.004	199.997
13.6375	99.999	100.004	199.997
13.64	99.999	100.004	199.997
13.6425	99.9989	100.004	199.997
13.645	99.9989	100.004	199.997
13.6475	99.9989	100.004	199.997
13.65	99.9989	100.004	199.997
13.6525	99.9989	100.004	199.997
13.655	99.9989	100.004	199.997
13.6575	99.9989	100.004	199.997
13.66	99.9989	100.004	199.997
13.6625	99.9989	100.004	199.998
13.665	99.9989	100.004	199.998
13.6675	99.9989	100.004	199.998
13.67	99.9988	100.004	199.998
13.6725	99.9988	100.004	199.998
13.675	99.9988	100.004	199.998
13.6775	99.9988	100.004	199.998
13.68	99.9988	100.004	199.998
13.6825	99.9988	100.004	199.998
13.685	99.9988	100.004	199.998
13.6875	99.9988	100.004	199.998
13.69	99.9988	100.004	199.998
13.6925	99.9988	100.004	199.998
13.695	99.9988	100.004	199.998
13.6975	99.9987	100.004	199.998
13.7	99.9987	100.004	199.998
13.7025	99.9987	100.004	199.998
13.705	99.9987	100.004	199.998
13.7075	99.9987	100.004	199.998
13.71	99.9987	100.004	199.998
13.7125	99.9987	100.004	199.998
13.715	99.9987	100.004	199.998
13.7175	99.9987	100.004	199.998
13.72	99.9987	100.004	199.998
13.7225	99.9987	100.004	199.998
13.725	99.9987	100.004	199.998
13.7275	99.9986	100.004	199.998
13.73	99.9986	100.004	199.998
13.7325	99.9986	100.004	199.998
13.735	99.9986	100.004	199.998
13.7375	99.9986	100.004	199.998
13.74	99.9986	100.004	199.998
13.7425	99.9986	100.004	199.998
13.745	99.9986	100.004	199.998
13.7475	99.9986	100.004	199.998
13.75	99.9986	100.004	199.998
13.7525	99.9986	100.004	199.998
13.755	99.9986	100.004	199.998
13.7575	99.9985	100.003	199.998
13.76	99.9985	100.003	199.998
13.7625	99.9985	100.003	199.998
13.765	99.9985	100.003	199.998
13.7675	99.9985	100.003	199.998
13.77	99.9985	100.003	199.998
13.7725	99.9985	100.003	199.998
13.775	99.9985	100.003	199.998
13.7775	99.9985	100.003	199.998
13.78	99.9985	100.003	199.998
13.7825	99.9985	100.003	199.998
13.785	99.9985	100.003	199.998
13.7875	99.9985	100.003	199.998
13.79	99.9985	100.003	199.998
13.7925	99.9984	100.003	199.998
13.795	99.9984	100.003	199.998
13.7975	99.9984	100.003	199.998
13.8	99.9984	100.003	199.998
13.8025	99.9984	100.003	199.998
13.805	99.9984	100.003	199.998
13.8075	99.9984	100.003	199.998
13.81	99.9984	100.003	199.998
13.8125	99.9984	100.003	199.998
13.815	99.9984	100.003	199.998
13.8175	99.9984	100.003	199.998
13.82	99.9984	100.003	199.998
13.8225	99.9984	100.003	199.998
13.825	99.9984	100.003	199.998
13.8275	99.9984	100.003	199.998
13.83	99.9983	100.003	199.998
13.8325	99.9983	100.003	199.998
13.835	99.9983	100.003	199.998
13.8375	99.9983	100.003	199.998
13.84	99.9983	100.003	199.998
13.8425	99.9983	100.003	199.998
13.845	99.9983	100.003	199.998
13.8475	99.9983	100.003	199.998
13.85	99.9983	100.003	199.998
13.8525	99.9983	100.003	199.998
13.855	99.9983	100.003	199.998
13.8575	99.9983	100.003	199.998
13.86	99.9983	100.003	199.998
13.8625	99.9983	100.003	199.998
13.865	99.9983	100.003	199.998
13.8675	99.9983	100.003	199.998
13.87	99.9982	100.003	199.998
13.8725	99.9982	100.003	199.998
13.875	99.9982	100.003	199.998
13.8775	99.9982	100.003	199.998
13.88	99.9982	100.003	199.998
13.8825	99.9982	100.003	199.998
13.885	99.9982	100.003	199.998
13.8875	99.9982	100.003	199.999
13.89	99.9982	100.003	199.999
13.8925	99.9982	100.003	199.999
13.895	99.9982	100.003	199.999
13.8975	99.9982	100.003	199.999
13.9	99.9982	100.003	199.999
13.9025	99.9982	100.003	199.999
13.905	99.9982	100.003	199.999
13.9075	99.9982	100.003	199.999
13.91	99.9982	100.003	199.999
13.9125	99.9982	100.003	199.999
13.915	99.9981	100.003	199.999
13.9175	99.9981	100.003	199.999
13.92	99.9981	100.003	199.999
13.9225	99.9981	100.003	199.999
13.925	99.9981	100.003	199.999
13.9275	99.9981	100.003	199.999
13.93	99.9981	100.003	199.999
13.9325	99.9981	100.003	199.999
13.935	99.9981	100.003	199.999
13.9375	99.9981	100.003	199.999
13.94	99.9981	100.003	199.999
13.9425	99.9981	100.003	199.999
13.945	99.9981	100.003	199.999
13.9475	99.9981	100.003	199.999
13.95	99.9981	100.003	199.999
13.9525	99.9981	100.003	199.999
13.955	99.9981	100.003	199.999
13.9575	99.9981	100.003	199.999
13.96	99.9981	100.003	199.999
13.9625	99.9981	100.003	199.999
13.965	99.998	100.003	199.999
13.9675	99.998	100.003	199.999
13.97	99.998	100.003	199.999
13.9725	99.998	100.003	199.999
13.975	99.998	100.003	199.999
13.9775	99.998	100.003	199.999
13.98	99.998	100.003	199.999
13.9825	99.998	100.003	199.999
13.985	99.998	100.003	199.999
13.9875	99.998	100.003	199.999
13.99	99.998	100.003	199.999
13.9925	99.998	100.003	199.999
13.995	99.998	100.003	199.999
13.9975	99.998	100.003	199.999
14	99.998	100.003	199.999
14.0025	99.998	100.003	199.999
14.005	99.998	100.003	199.999
14.0075	99.998	100.003	199.999
14.01	99.998	100.003	199.999
14.0125	99.998	100.003	199.999
14.015	99.998	100.003	199.999
14.0175	99.998	100.003	199.999
14.02	99.998	100.003	199.999
14.0225	99.998	100.003	199.999
14.025	99.998	100.003	199.999
14.0275	99.9979	100.003	199.999
14.03	99.9979	100.003	199.999
14.0325	99.9979	100.003	199.999
14.035	99.9979	100.003	199.999
14.0375	99.9979	100.003	199.999
14.04	99.9979	100.003	199.999
14.0425	99.9979	100.003	199.999
14.045	99.9979	100.003	199.999
14.0475	99.9979	100.003	199.999
14.05	99.9979	100.003	199.999
14.0525	99.9979	100.003	199.999
14.055	99.9979	100.003	199.999
14.0575	99.9979	100.003	199.999
14.06	99.9979	100.003	199.999
14.0625	99.9979	100.003	199.999
14.065	99.9979	100.003	199.999
14.0675	99.9979	100.003	199.999
14.07	99.9979	100.003	199.999
14.0725	99.9979	100.003	199.999
14.075	99.9979	100.003	199.999
14.0775	99.9979	100.003	199.999
14.08	99.9979	100.003	199.999
14.0825	99.9979	100.003	199.999
14.085	99.9979	100.003	199.999
14.0875	99.9979	100.003	199.999
14.09	99.9979	100.003	199.999
14.0925	99.9979	100.003	199.999
14.095	99.9979	100.003	199.999
14.0975	99.9979	100.003	199.999
14.1	99.9979	100.003	199.999
14.1025	99.9979	100.003	199.999
14.105	99.9979	100.003	199.999
14.1075	99.9978	100.003	199.999
14.11	99.9978	100.003	199.999
14.1125	99.9978	100.003	199.999
14.115	99.9978	100.003	199.999
14.1175	99.9978	100.003	199.999
14.12	99.9978	100.003	199.999
14.1225	99.9978	100.003	199.999
14.125	99.9978	100.003	199.999
14.1275	99.9978	100.003	199.999
14.13	99.9978	100.003	199.999
14.1325	99.9978	100.003	199.999
14.135	99.9978	100.003	199.999
14.1375	99.9978	100.003	199.999
14.14	99.9978	100.003	199.999
14.1425	99.9978	100.003	199.999
14.145	99.9978	100.003	199.999
14.1475	99.9978	100.003	199.999
14.15	99.9978	100.003	199.999
14.1525	99.9978	100.003	199.999
14.155	99.9978	100.003	199.999
14.1575	99.9978	100.003	199.999
14.16	99.9978	100.003	199.999
14.1625	99.9978	100.003	199.999
14.165	99.9978	100.003	199.999
14.1675	99.9978	100.003	199.999
14.17	99.9978	100.003	199.999
14.1725	99.9978	100.003	200
14.175	99.9978	100.003	200
14.1775	99.9978	100.003	200
14.18	99.9978	100.003	200
14.1825	99.9978	100.003	200
14.185	99.9978	100.003	200
14.1875	99.9978	100.003	200
14.19	99.9978	100.003	200
14.1925	99.9978	100.003	200
14.195	99.9978	100.003	200
14.1975	99.9978	100.003	200
14.2	99.9978	100.003	200
14.2025	99.9978	100.003	200
14.205	99.9978	100.003	200
14.2075	99.9978	100.003	200
14.21	99.9978	100.003	200
14.2125	99.9978	100.003	200
14.215	99.9978	100.003	200
14.2175	99.9978	100.003	200
14.22	99.9978	100.003	200
14.2225	99.9978	100.003	200
14.225	99.9978	100.003	200
14.2275	99.9978	100.003	200
14.23	99.9978	100.003	200
14.2325	99.9978	100.003	200
14.235	99.9978	100.003	200
14.2375	99.9978	100.003	200
14.24	99.9978	100.003	200
14.2425	99.9978	100.003	200
14.245	99.9977	100.003	200
14.2475	99.9977	100.003	200
14.25	99.9977	100.003	200
14.2525	99.9977	100.003	200
14.255	99.9977	100.003	200
14.2575	99.9977	100.003	200
14.26	99.9977	100.003	200
14.2625	99.9977	100.003	200
14.265	99.9977	100.002	200
14.2675	99.9977	100.002	200
14.27	99.9977	100.002	200
14.2725	99.9977	100.002	200
14.275	99.9977	100.002	200
14.2775	99.9977	100.002	200
14.28	99.9977	100.002	200
14.2825	99.9977	100.002	200
14.285	99.9977	100.002	200
14.2875	99.9977	100.002	200
14.29	99.9977	100.002	200
14.2925	99.9977	100.002	200
14.295	99.9977	100.002	200
14.2975	99.9977	100.002	200
14.3	99.9977	100.002	200
14.3025	99.9977	100.002	200
14.305	99.9977	100.002	200
14.3075	99.9977	100.002	200
14.31	99.9977	100.002	200
14.3125	99.9977	100.002	200
14.315	99.9977	100.002	200
14.3175	99.9977	100.002	200
14.32	99.9977	100.002	200
14.3225	99.9977	100.002	200
14.325	99.9977	100.002	200
14.3275	99.9977	100.002	200
14.33	99.9977	100.002	200
14.3325	99.9977	100.002	200
14.335	99.9977	100.002	200
14.3375	99.9977	100.002	200
14.34	99.9977	100.002	200
14.3425	99.9977	100.002	200
14.345	99.9977	100.002	200
14.3475	99.9977	100.002	200
14.35	99.9977	100.002	200
14.3525	99.9977	100.002	200
14.355	99.9977	100.002	200
14.3575	99.9977	100.002	200
14.36	99.9977	100.002	200
14.3625	99.9977	100.002	200
14.365	99.9977	100.002	200
14.3675	99.9977	100.002	200
14.37	99.9977	100.002	200
14.3725	99.9977	100.002	200
14.375	99.9977	100.002	200
14.3775	99.9977	100.002	200
14.38	99.9977	100.002	200
14.3825	99.9977	100.002	200
14.385	99.9977	100.002	200
14.3875	99.9977	100.002	200
14.39	99.9977	100.002	200
14.3925	99.9977	100.002	200
14.395	99.9977	100.002	200
14.3975	99.9977	100.002	200
14.4	99.9977	100.002	200
14.4025	99.9977	100.002	200
14.405	99.9977	100.002	200
14.4075	99.9977	100.002	200
14.41	99.9977	100.002	200
14.4125	99.9977	100.002	200
14.415	99.9977	100.002	200
14.4175	99.9977	100.002	200
14.42	99.9977	100.002	200
14.4225	99.9977	100.002	200
14.425	99.9977	100.002	200
14.4275	99.9977	100.002	200
14.43	99.9977	100.002	200
14.4325	99.9977	100.002	200
14.435	99.9977	100.002	200
14.4375	99.9977	100.002	200
14.44	99.9977	100.002	200
14.4425	99.9977	100.002	200
14.445	99.9977	100.002	200
14.4475	99.9977	100.002	200
14.45	99.9977	100.002	200
14.4525	99.9977	100.002	200
14.455	99.9977	100.002	200
14.4575	99.9977	100.002	200
14.46	99.9977	100.002	200
14.4625	99.9977	100.002	200
14.465	99.9977	100.002	200
14.4675	99.9977	100.002	200
14.47	99.9977	100.002	200
14.4725	99.9977	100.002	200
14.475	99.9977	100.002	200
14.4775	99.9977	100.002	200
14.48	99.9977	100.002	200
14.4825	99.9977	100.002	200
14.485	99.9977	100.002	200
14.4875	99.9977	100.002	200
14.49	99.9977	100.002	200
14.4925	99.9978	100.002	200
14.495	99.9978	100.002	200
14.4975	99.9978	100.002	200
14.5	99.9978	100.002	200
14.5025	99.9978	100.002	200
14.505	99.9978	100.002	200
14.5075	99.9978	100.002	200
14.51	99.9978	100.002	200
14.5125	99.9978	100.002	200
14.515	99.9978	100.002	200
14.5175	99.9978	100.002	200
14.52	99.9978	100.002	200
14.5225	99.9978	100.002	200
14.525	99.9978	100.002	200
14.5275	99.9978	100.002	200
14.53	99.9978	100.002	200
14.5325	99.9978	100.002	200
14.535	99.9978	100.002	200
14.5375	99.9978	100.002	200
14.54	99.9978	100.002	200
14.5425	99.9978	100.002	200
14.545	99.9978	100.002	200
14.5475	99.9978	100.002	200
14.55	99.9978	100.002	200
14.5525	99.9978	100.002	200
14.555	99.9978	100.002	200
14.5575	99.9978	100.002	200
14.56	99.9978	100.002	200
14.5625	99.9978	100.002	200
14.565	99.9978	100.002	200
14.5675	99.9978	100.002	200
14.57	99.9978	100.002	200
14.5725	99.9978	100.002	200
14.575	99.9978	100.002	200
14.5775	99.9978	100.002	200
14.58	99.9978	100.002	200
14.5825	99.9978	100.002	200
14.585	99.9978	100.002	200
14.5875	99.9978	100.002	200
14.59	99.9978	100.002	200
14.5925	99.9978	100.002	200
14.595	99.9978	100.002	200
14.5975	99.9978	100.002	200
14.6	99.9978	100.002	200
14.6025	99.9978	100.002	200
14.605	99.9978	100.002	200
14.6075	99.9978	100.002	200
14.61	99.9978	100.002	200
14.6125	99.9978	100.002	200
14.615	99.9978	100.002	200
14.6175	99.9978	100.002	200
14.62	99.9978	100.002	200
14.6225	99.9978	100.002	200
14.625	99.9978	100.002	200
14.6275	99.9978	100.002	200
14.63	99.9978	100.002	200
14.6325	99.9978	100.002	200
14.635	99.9978	100.002	200
14.6375	99.9978	100.002	200.001
14.64	99.9978	100.002	200.001
14.6425	99.9978	100.002	200.001
14.645	99.9978	100.002	200.001
14.6475	99.9978	100.002	200.001
14.65	99.9978	100.002	200.001
14.6525	99.9978	100.002	200.001
14.655	99.9978	100.002	200.001
14.6575	99.9979	100.002	200.001
14.66	99.9979	100.002	200.001
14.6625	99.9979	100.002	200.001
14.665	99.9979	100.002	200.001
14.6675	99.9979	100.002	200.001
14.67	99.9979	100.002	200.001
14.6725	99.9979	100.002	200.001
14.675	99.9979	100.002	200.001
14.6775	99.9979	100.002	200.001
14.68	99.9979	100.002	200.001
14.6825	99.9979	100.002	200.001
14.685	99.9979	100.002	200.001
14.6875	99.9979	100.002	200.001
14.69	99.9979	100.002	200.001
14.6925	99.9979	100.002	200.001
14.695	99.9979	100.002	200.001
14.6975	99.9979	100.002	200.001
14.7	99.9979	100.002	200.001
14.7025	99.9979	100.002	200.001
14.705	99.9979	100.002	200.001
14.7075	99.9979	100.002	200.001
14.71	99.9979	100.002	200.001
14.7125	99.9979	100.002	200.001
14.715	99.9979	100.001	200.001
14.7175	99.9979	100.001	200.001
14.72	99.9979	100.001	200.001
14.7225	99.9979	100.001	200.001
14.725	99.9979	100.001	200.001
14.7275	99.9979	100.001	200.001
14.73	99.9979	100.001	200.001
14.7325	99.9979	100.001	200.001
14.735	99.9979	100.001	200.001
14.7375	99.9979	100.001	200.001
14.74	99.9979	100.001	200.001
14.7425	99.9979	100.001	200.001
14.745	99.9979	100.001	200.001
14.7475	99.9979	100.001	200.001
14.75	99.9979	100.001	200.001
14.7525	99.9979	100.001	200.001
14.755	99.9979	100.001	200.001
14.7575	99.9979	100.001	200.001
14.76	99.9979	100.001	200.001
14.7625	99.9979	100.001	200.001
14.765	99.9979	100.001	200.001
14.7675	99.998	100.001	200.001
14.77	99.998	100.001	200.001
14.7725	99.998	100.001	200.001
14.775	99.998	100.001	200.001
14.7775	99.998	100.001	200.001
14.78	99.998	100.001	200.001
14.7825	99.998	100.001	200.001
14.785	99.998	100.001	200.001
14.7875	99.998	100.001	200.001
14.79	99.998	100.001	200.001
14.7925	99.998	100.001	200.001
14.795	99.998	100.001	200.001
14.7975	99.998	100.001	200.001
14.8	99.998	100.001	200.001
14.8025	99.998	100.001	200.001
14.805	99.998	100.001	200.001
14.8075	99.998	100.001	200.001
14.81	99.998	100.001	200.001
14.8125	99.998	100.001	200.001
14.815	99.998	100.001	200.001
14.8175	99.998	100.001	200.001
14.82	99.998	100.001	200.001
14.8225	99.998	100.001	200.001
14.825	99.998	100.001	200.001
14.8275	99.998	100.001	200.001
14.83	99.998	100.001	200.001
14.8325	99.998	100.001	200.001
14.835	99.998	100.001	200.001
14.8375	99.998	100.001	200.001
14.84	99.998	100.001	200.001
14.8425	99.998	100.001	200.001
14.845	99.998	100.001	200.001
14.8475	99.998	100.001	200.001
14.85	99.998	100.001	200.001
14.8525	99.998	100.001	200.001
14.855	99.998	100.001	200.001
14.8575	99.998	100.001	200.001
14.86	99.998	100.001	200.001
14.8625	99.9981	100.001	200.001
14.865	99.9981	100.001	200.001
14.8675	99.9981	100.001	200.001
14.87	99.9981	100.001	200.001
14.8725	99.9981	100.001	200.001
14.875	99.9981	100.001	200.001
14.8775	99.9981	100.001	200.001
14.88	99.9981	100.001	200.001
14.8825	99.9981	100.001	200.001
14.885	99.9981	100.001	200.001
14.8875	99.9981	100.001	200.001
14.89	99.9981	100.001	200.001
14.8925	99.9981	100.001	200.001
14.895	99.9981	100.001	200.001
14.8975	99.9981	100.001	200.001
14.9	99.9981	100.001	200.001
14.9025	99.9981	100.001	200.001
14.905	99.9981	100.001	200.001
14.9075	99.9981	100.001	200.001
14.91	99.9981	100.001	200.001
14.9125	99.9981	100.001	200.001
14.915	99.9981	100.001	200.001
14.9175	99.9981	100.001	200.001
14.92	99.9981	100.001	200.001
14.9225	99.9981	100.001	200.001
14.925	99.9981	100.001	200.001
14.9275	99.9981	100.001	200.001
14.93	99.9981	100.001	200.001
14.9325	99.9981	100.001	200.001
14.935	99.9981	100.001	200.001
14.9375	99.9981	100.001	200.001
14.94	99.9981	100.001	200.001
14.9425	99.9981	100.001	200.001
14.945	99.9981	100.001	200.001
14.9475	99.9982	100.001	200.001
14.95	99.9982	100.001	200.001
14.9525	99.9982	100.001	200.001
14.955	99.9982	100.001	200.001
14.9575	99.9982	100.001	200.001
14.96	99.9982	100.001	200.001
14.9625	99.9982	100.001	200.001
14.965	99.9982	100.001	200.001
14.9675	99.9982	100.001	200.001
14.97	99.9982	100.001	200.001
14.9725	99.9982	100.001	200.001
14.975	99.9982	100.001	200.001
14.9775	99.9982	100.001	200.001
14.98	99.9982	100.001	200.001
14.9825	99.9982	100.001	200.001
14.985	99.9982	100.001	200.001
14.9875	99.9982	100.001	200.001
14.99	99.9982	100.001	200.001
14.9925	99.9982	100.001	200.001
14.995	99.9982	100.001	200.001
14.9975	99.9982	100.001	200.001
15	99.9982	100.001	200.001
