# N = 400
# (S0, I0, R0) = (101.25, 283.75, 15)
# (a, b, c) = (4, 1, 0.5)
# time, S, I, R
0	101.25	283.75	15
0.0025	100.553	283.756	15.6902
0.005	99.8626	283.758	16.3796
0.0075	99.1775	283.754	17.068
0.01	98.4982	283.746	17.7557
0.0125	97.8245	283.733	18.4424
0.015	97.1565	283.715	19.1282
0.0175	96.4941	283.693	19.8131
0.02	95.8373	283.666	20.4971
0.0225	95.186	283.634	21.1802
0.025	94.5403	283.597	21.8624
0.0275	93.9001	283.556	22.5436
0.03	93.2654	283.511	23.2238
0.0325	92.6361	283.461	23.9031
0.035	92.0122	283.406	24.5813
0.0375	91.3937	283.348	25.2586
0.04	90.7805	283.285	25.9349
0.0425	90.1727	283.217	26.6102
0.045	89.5701	283.145	27.2845
0.0475	88.9728	283.069	27.9577
0.05	88.3808	282.989	28.6299
0.0525	87.7939	282.905	29.3011
0.055	87.2121	282.817	29.9712
0.0575	86.6355	282.724	30.6403
0.06	86.064	282.628	31.3082
0.0625	85.4976	282.527	31.9751
0.065	84.9362	282.423	32.6409
0.0675	84.3798	282.315	33.3056
0.07	83.8284	282.202	33.9692
0.0725	83.2819	282.086	34.6317
0.075	82.7403	281.967	35.2931
0.0775	82.2036	281.843	35.9533
0.08	81.6718	281.716	36.6124
0.0825	81.1448	281.585	37.2704
0.085	80.6225	281.45	37.9272
0.0875	80.105	281.312	38.5828
0.09	79.5922	281.17	39.2373
0.0925	79.0842	281.025	39.8906
0.095	78.5807	280.877	40.5427
0.0975	78.0819	280.724	41.1936
0.1	77.5877	280.569	41.8433
0.1025	77.0981	280.41	42.4918
0.105	76.613	280.248	43.1391
0.1075	76.1324	280.082	43.7852
0.11	75.6563	279.914	44.4301
0.1125	75.1846	279.742	45.0737
0.115	74.7174	279.567	45.7161
0.1175	74.2545	279.388	46.3573
0.12	73.796	279.207	46.9972
0.1225	73.3418	279.022	47.6358
0.125	72.8919	278.835	48.2732
0.1275	72.4462	278.644	48.9093
0.13	72.0048	278.451	49.5441
0.1325	71.5676	278.255	50.1777
0.135	71.1345	278.055	50.81
0.1375	70.7056	277.853	51.4409
0.14	70.2809	277.649	52.0706
0.1425	69.8602	277.441	52.699
0.145	69.4435	277.23	53.3261
0.1475	69.0309	277.017	53.9518
0.15	68.6222	276.801	54.5763
0.1525	68.2176	276.583	55.1994
0.155	67.8168	276.362	55.8212
0.1575	67.42	276.138	56.4417
0.16	67.0271	275.912	57.0608
0.1625	66.638	275.683	57.6786
0.165	66.2527	275.452	58.295
0.1675	65.8713	275.219	58.9101
0.17	65.4936	274.983	59.5238
0.1725	65.1196	274.744	60.1362
0.175	64.7493	274.503	60.7472
0.1775	64.3828	274.26	61.3569
0.18	64.0198	274.015	61.9651
0.1825	63.6606	273.767	62.572
0.185	63.3049	273.518	63.1775
0.1875	62.9527	273.266	63.7817
0.19	62.6042	273.011	64.3844
0.1925	62.2591	272.755	64.9858
0.195	61.9176	272.497	65.5857
0.1975	61.5795	272.236	66.1843
0.2	61.2448	271.974	66.7814
0.2025	60.9136	271.709	67.3772
0.205	60.5857	271.443	67.9715
0.2075	60.2612	271.174	68.5645
0.21	59.9401	270.904	69.156
0.2125	59.6222	270.632	69.7461
0.215	59.3076	270.358	70.3348
0.2175	58.9963	270.082	70.9221
0.22	58.6883	269.804	71.5079
0.2225	58.3834	269.524	72.0923
0.225	58.0817	269.243	72.6753
0.2275	57.7832	268.96	73.2568
0.23	57.4878	268.675	73.8369
0.2325	57.1955	268.389	74.4156
0.235	56.9063	268.101	74.9928
0.2375	56.6201	267.811	75.5686
0.24	56.337	267.52	76.143
0.2425	56.0569	267.227	76.7159
0.245	55.7798	266.933	77.2873
0.2475	55.5057	266.637	77.8573
0.25	55.2345	266.34	78.4259
0.2525	54.9662	266.041	78.993
0.255	54.7008	265.741	79.5586
0.2575	54.4383	265.439	80.1228
0.26	54.1786	265.136	80.6855
0.2625	53.9217	264.832	81.2467
0.265	53.6677	264.526	81.8065
0.2675	53.4164	264.219	82.3648
0.27	53.1679	263.91	82.9217
0.2725	52.9222	263.601	83.4771
0.275	52.6791	263.29	84.031
0.2775	52.4387	262.978	84.5835
0.28	52.201	262.665	85.1344
0.2825	51.966	262.35	85.684
0.285	51.7336	262.034	86.232
0.2875	51.5038	261.718	86.7785
0.29	51.2766	261.4	87.3236
0.2925	51.0519	261.081	87.8672
0.295	50.8298	260.761	88.4094
0.2975	50.6102	260.44	88.95
0.3	50.3931	260.118	89.4892
0.3025	50.1785	259.795	90.0269
0.305	49.9664	259.471	90.5631
0.3075	49.7567	259.145	91.0978
0.31	49.5494	258.82	91.6311
0.3125	49.3446	258.493	92.1628
0.315	49.1421	258.165	92.6931
0.3175	48.9419	257.836	93.2219
0.32	48.7442	257.507	93.7493
0.3225	48.5487	257.176	94.2751
0.325	48.3556	256.845	94.7994
0.3275	48.1647	256.513	95.3223
0.33	47.9761	256.18	95.8437
0.3325	47.7898	255.847	96.3636
0.335	47.6057	255.512	96.882
0.3375	47.4238	255.177	97.399
0.34	47.2441	254.841	97.9144
0.3425	47.0666	254.505	98.4284
0.345	46.8913	254.168	98.9409
0.3475	46.7181	253.83	99.4519
0.35	46.547	253.492	99.9614
0.3525	46.378	253.153	100.469
0.355	46.2111	252.813	100.976
0.3575	46.0463	252.473	101.481
0.36	45.8835	252.132	101.985
0.3625	45.7228	251.79	102.487
0.365	45.5641	251.448	102.987
0.3675	45.4074	251.106	103.487
0.37	45.2527	250.763	103.984
0.3725	45.1	250.42	104.48
0.375	44.9492	250.076	104.975
0.3775	44.8004	249.731	105.468
0.38	44.6535	249.386	105.96
0.3825	44.5085	249.041	106.45
0.385	44.3654	248.695	106.939
0.3875	44.2242	248.349	107.426
0.39	44.0848	248.003	107.912
0.3925	43.9473	247.656	108.397
0.395	43.8116	247.309	108.88
0.3975	43.6778	246.961	109.361
0.4	43.5457	246.613	109.841
0.4025	43.4154	246.265	110.32
0.405	43.2869	245.917	110.797
0.4075	43.1602	245.568	111.272
0.41	43.0351	245.219	111.746
0.4125	42.9119	244.869	112.219
0.415	42.7903	244.52	112.69
0.4175	42.6704	244.17	113.16
0.42	42.5523	243.82	113.628
0.4225	42.4358	243.469	114.095
0.425	42.3209	243.119	114.56
0.4275	42.2077	242.768	115.024
0.43	42.0961	242.418	115.486
0.4325	41.9862	242.067	115.947
0.435	41.8778	241.715	116.407
0.4375	41.7711	241.364	116.865
0.44	41.6659	241.013	117.321
0.4425	41.5623	240.661	117.777
0.445	41.4602	240.309	118.23
0.4475	41.3597	239.958	118.683
0.45	41.2607	239.606	119.133
0.4525	41.1632	239.254	119.583
0.455	41.0672	238.902	120.031
0.4575	40.9727	238.55	120.477
0.46	40.8797	238.198	120.922
0.4625	40.7882	237.846	121.366
0.465	40.6981	237.494	121.808
0.4675	40.6094	237.142	122.249
0.47	40.5222	236.79	122.688
0.4725	40.4364	236.438	123.126
0.475	40.352	236.085	123.563
0.4775	40.2689	235.733	123.998
0.48	40.1873	235.381	124.431
0.4825	40.1071	235.03	124.863
0.485	40.0282	234.678	125.294
0.4875	39.9506	234.326	125.724
0.49	39.8744	233.974	126.152
0.4925	39.7995	233.622	126.578
0.495	39.7259	233.271	127.003
0.4975	39.6537	232.919	127.427
0.5	39.5827	232.568	127.849
0.5025	39.513	232.217	128.27
0.505	39.4446	231.866	128.69
0.5075	39.3774	231.515	129.108
0.51	39.3115	231.164	129.524
0.5125	39.2469	230.813	129.94
0.515	39.1834	230.463	130.354
0.5175	39.1212	230.113	130.766
0.52	39.0602	229.762	131.177
0.5225	39.0005	229.412	131.587
0.525	38.9419	229.063	131.995
0.5275	38.8844	228.713	132.402
0.53	38.8282	228.364	132.808
0.5325	38.7731	228.015	133.212
0.535	38.7192	227.666	133.615
0.5375	38.6664	227.317	134.016
0.54	38.6147	226.969	134.417
0.5425	38.5642	226.62	134.815
0.545	38.5148	226.273	135.213
0.5475	38.4665	225.925	135.609
0.55	38.4193	225.577	136.003
0.5525	38.3732	225.23	136.396
0.555	38.3282	224.883	136.788
0.5575	38.2842	224.537	137.179
0.56	38.2413	224.191	137.568
0.5625	38.1994	223.845	137.956
0.565	38.1586	223.499	138.342
0.5675	38.1189	223.154	138.728
0.57	38.0801	222.808	139.111
0.5725	38.0424	222.464	139.494
0.575	38.0057	222.119	139.875
0.5775	37.97	221.775	140.255
0.58	37.9353	221.431	140.633
0.5825	37.9016	221.088	141.01
0.585	37.8689	220.745	141.386
0.5875	37.8371	220.402	141.761
0.59	37.8063	220.06	142.134
0.5925	37.7765	219.718	142.506
0.595	37.7476	219.376	142.876
0.5975	37.7196	219.035	143.245
0.6	37.6926	218.694	143.613
0.6025	37.6665	218.354	143.98
0.605	37.6413	218.014	144.345
0.6075	37.617	217.674	144.709
0.61	37.5937	217.335	145.072
0.6125	37.5712	216.996	145.433
0.615	37.5496	216.657	145.793
0.6175	37.5289	216.319	146.152
0.62	37.5091	215.982	146.509
0.6225	37.4901	215.645	146.865
0.625	37.472	215.308	147.22
0.6275	37.4548	214.971	147.574
0.63	37.4383	214.635	147.926
0.6325	37.4228	214.3	148.277
0.635	37.4081	213.965	148.627
0.6375	37.3942	213.63	148.975
0.64	37.3811	213.296	149.323
0.6425	37.3688	212.963	149.669
0.645	37.3573	212.629	150.013
0.6475	37.3467	212.297	150.357
0.65	37.3368	211.964	150.699
0.6525	37.3277	211.632	151.04
0.655	37.3194	211.301	151.379
0.6575	37.3119	210.97	151.718
0.66	37.3051	210.64	152.055
0.6625	37.2991	210.31	152.391
0.665	37.2939	209.981	152.726
0.6675	37.2894	209.652	153.059
0.67	37.2856	209.323	153.391
0.6725	37.2826	208.995	153.722
0.675	37.2803	208.668	154.052
0.6775	37.2788	208.341	154.38
0.68	37.278	208.014	154.708
0.6825	37.2778	207.688	155.034
0.685	37.2784	207.363	155.358
0.6875	37.2797	207.038	155.682
0.69	37.2817	206.714	156.004
0.6925	37.2844	206.39	156.326
0.695	37.2878	206.067	156.646
0.6975	37.2918	205.744	156.964
0.7	37.2966	205.422	157.282
0.7025	37.302	205.1	157.598
0.705	37.308	204.779	157.913
0.7075	37.3148	204.458	158.227
0.71	37.3221	204.138	158.54
0.7125	37.3302	203.818	158.852
0.715	37.3388	203.499	159.162
0.7175	37.3481	203.181	159.471
0.72	37.3581	202.863	159.779
0.7225	37.3687	202.545	160.086
0.725	37.3799	202.228	160.392
0.7275	37.3917	201.912	160.696
0.73	37.4041	201.596	161
0.7325	37.4172	201.281	161.302
0.735	37.4308	200.966	161.603
0.7375	37.445	200.652	161.903
0.74	37.4599	200.339	162.201
0.7425	37.4753	200.026	162.499
0.745	37.4913	199.713	162.795
0.7475	37.5079	199.402	163.09
0.75	37.5251	199.09	163.384
0.7525	37.5428	198.78	163.677
0.755	37.5612	198.47	163.969
0.7575	37.58	198.16	164.26
0.76	37.5995	197.851	164.549
0.7625	37.6195	197.543	164.838
0.765	37.64	197.235	165.125
0.7675	37.6611	196.928	165.411
0.77	37.6827	196.621	165.696
0.7725	37.7048	196.315	165.98
0.775	37.7275	196.01	166.263
0.7775	37.7508	195.705	166.544
0.78	37.7745	195.401	166.825
0.7825	37.7988	195.097	167.104
0.785	37.8235	194.794	167.383
0.7875	37.8488	194.491	167.66
0.79	37.8746	194.189	167.936
0.7925	37.9009	193.888	168.211
0.795	37.9277	193.587	168.485
0.7975	37.955	193.287	168.758
0.8	37.9828	192.988	169.029
0.8025	38.0111	192.689	169.3
0.805	38.0398	192.391	169.57
0.8075	38.0691	192.093	169.838
0.81	38.0988	191.796	170.105
0.8125	38.129	191.499	170.372
0.815	38.1596	191.203	170.637
0.8175	38.1908	190.908	170.901
0.82	38.2223	190.613	171.164
0.8225	38.2544	190.319	171.426
0.825	38.2869	190.026	171.687
0.8275	38.3198	189.733	171.947
0.83	38.3532	189.441	172.206
0.8325	38.3871	189.149	172.464
0.835	38.4213	188.858	172.721
0.8375	38.4561	188.568	172.976
0.84	38.4912	188.278	173.231
0.8425	38.5268	187.988	173.485
0.845	38.5628	187.7	173.737
0.8475	38.5992	187.412	173.989
0.85	38.6361	187.125	174.239
0.8525	38.6733	186.838	174.489
0.855	38.711	186.552	174.737
0.8575	38.7491	186.266	174.985
0.86	38.7876	185.981	175.231
0.8625	38.8265	185.697	175.477
0.865	38.8658	185.413	175.721
0.8675	38.9055	185.13	175.964
0.87	38.9456	184.848	176.207
0.8725	38.986	184.566	176.448
0.875	39.0269	184.285	176.688
0.8775	39.0682	184.004	176.928
0.88	39.1098	183.724	177.166
0.8825	39.1518	183.445	177.404
0.885	39.1942	183.166	177.64
0.8875	39.237	182.888	177.875
0.89	39.2801	182.61	178.11
0.8925	39.3236	182.333	178.343
0.895	39.3674	182.057	178.575
0.8975	39.4117	181.781	178.807
0.9	39.4562	181.506	179.037
0.9025	39.5012	181.232	179.267
0.905	39.5465	180.958	179.495
0.9075	39.5921	180.685	179.723
0.91	39.6381	180.412	179.949
0.9125	39.6844	180.141	180.175
0.915	39.7311	179.869	180.4
0.9175	39.7781	179.598	180.623
0.92	39.8254	179.328	180.846
0.9225	39.8731	179.059	181.068
0.925	39.9211	178.79	181.289
0.9275	39.9695	178.522	181.509
0.93	40.0181	178.254	181.728
0.9325	40.0671	177.987	181.946
0.935	40.1164	177.721	182.163
0.9375	40.166	177.455	182.379
0.94	40.216	177.19	182.594
0.9425	40.2662	176.925	182.808
0.945	40.3168	176.662	183.022
0.9475	40.3677	176.398	183.234
0.95	40.4188	176.136	183.446
0.9525	40.4703	175.874	183.656
0.955	40.5221	175.612	183.866
0.9575	40.5742	175.351	184.074
0.96	40.6266	175.091	184.282
0.9625	40.6792	174.832	184.489
0.965	40.7322	174.573	184.695
0.9675	40.7854	174.314	184.9
0.97	40.839	174.056	185.105
0.9725	40.8928	173.799	185.308
0.975	40.9469	173.543	185.51
0.9775	41.0012	173.287	185.712
0.98	41.0559	173.032	185.912
0.9825	41.1108	172.777	186.112
0.985	41.166	172.523	186.311
0.9875	41.2215	172.269	186.509
0.99	41.2772	172.017	186.706
0.9925	41.3332	171.764	186.902
0.995	41.3895	171.513	187.098
0.9975	41.446	171.262	187.292
1	41.5028	171.011	187.486
1.0025	41.5599	170.762	187.679
1.005	41.6172	170.512	187.87
1.0075	41.6748	170.264	188.061
1.01	41.7326	170.016	188.252
1.0125	41.7906	169.769	188.441
1.015	41.8489	169.522	188.629
1.0175	41.9075	169.276	188.817
1.02	41.9663	169.03	189.004
1.0225	42.0253	168.785	189.19
1.025	42.0846	168.541	189.375
1.0275	42.1441	168.297	189.559
1.03	42.2038	168.054	189.742
1.0325	42.2638	167.811	189.925
1.035	42.324	167.57	190.106
1.0375	42.3845	167.328	190.287
1.04	42.4452	167.087	190.467
1.0425	42.5061	166.847	190.647
1.045	42.5672	166.608	190.825
1.0475	42.6285	166.369	191.003
1.05	42.6901	166.131	191.179
1.0525	42.7519	165.893	191.355
1.055	42.8139	165.656	191.53
1.0575	42.8761	165.419	191.705
1.06	42.9385	165.183	191.878
1.0625	43.0011	164.948	192.051
1.065	43.064	164.713	192.223
1.0675	43.127	164.479	192.394
1.07	43.1903	164.245	192.564
1.0725	43.2537	164.013	192.734
1.075	43.3174	163.78	192.902
1.0775	43.3813	163.548	193.07
1.08	43.4453	163.317	193.238
1.0825	43.5096	163.087	193.404
1.085	43.5741	162.856	193.569
1.0875	43.6387	162.627	193.734
1.09	43.7035	162.398	193.898
1.0925	43.7686	162.17	194.061
1.095	43.8338	161.942	194.224
1.0975	43.8992	161.715	194.386
1.1	43.9648	161.489	194.547
1.1025	44.0306	161.263	194.707
1.105	44.0966	161.037	194.866
1.1075	44.1627	160.813	195.025
1.11	44.229	160.588	195.183
1.1125	44.2955	160.365	195.34
1.115	44.3622	160.142	195.496
1.1175	44.429	159.919	195.652
1.12	44.4961	159.697	195.807
1.1225	44.5633	159.476	195.961
1.125	44.6306	159.255	196.114
1.1275	44.6982	159.035	196.267
1.13	44.7659	158.816	196.419
1.1325	44.8337	158.597	196.57
1.135	44.9018	158.378	196.72
1.1375	44.97	158.16	196.87
1.14	45.0383	157.943	197.019
1.1425	45.1068	157.726	197.167
1.145	45.1755	157.51	197.314
1.1475	45.2443	157.294	197.461
1.15	45.3133	157.079	197.607
1.1525	45.3825	156.865	197.753
1.155	45.4518	156.651	197.897
1.1575	45.5212	156.438	198.041
1.16	45.5908	156.225	198.184
1.1625	45.6606	156.013	198.327
1.165	45.7304	155.801	198.469
1.1675	45.8005	155.59	198.61
1.17	45.8707	155.379	198.75
1.1725	45.941	155.169	198.89
1.175	46.0115	154.96	199.029
1.1775	46.0821	154.751	199.167
1.18	46.1528	154.543	199.304
1.1825	46.2237	154.335	199.441
1.185	46.2947	154.128	199.577
1.1875	46.3659	153.921	199.713
1.19	46.4372	153.715	199.848
1.1925	46.5086	153.509	199.982
1.195	46.5801	153.304	200.115
1.1975	46.6518	153.1	200.248
1.2	46.7237	152.896	200.38
1.2025	46.7956	152.693	200.512
1.205	46.8677	152.49	200.642
1.2075	46.9399	152.288	200.773
1.21	47.0122	152.086	200.902
1.2125	47.0846	151.885	201.031
1.215	47.1572	151.684	201.159
1.2175	47.2299	151.484	201.286
1.22	47.3027	151.284	201.413
1.2225	47.3756	151.085	201.539
1.225	47.4486	150.887	201.665
1.2275	47.5218	150.689	201.789
1.23	47.5951	150.491	201.914
1.2325	47.6684	150.294	202.037
1.235	47.7419	150.098	202.16
1.2375	47.8155	149.902	202.282
1.24	47.8893	149.707	202.404
1.2425	47.9631	149.512	202.525
1.245	48.037	149.318	202.645
1.2475	48.1111	149.124	202.765
1.25	48.1852	148.931	202.884
1.2525	48.2594	148.738	203.002
1.255	48.3338	148.546	203.12
1.2575	48.4083	148.355	203.237
1.26	48.4828	148.164	203.354
1.2625	48.5575	147.973	203.469
1.265	48.6322	147.783	203.585
1.2675	48.7071	147.593	203.699
1.27	48.782	147.404	203.813
1.2725	48.8571	147.216	203.927
1.275	48.9322	147.028	204.04
1.2775	49.0075	146.841	204.152
1.28	49.0828	146.654	204.264
1.2825	49.1582	146.467	204.375
1.285	49.2337	146.281	204.485
1.2875	49.3093	146.096	204.595
1.29	49.385	145.911	204.704
1.2925	49.4608	145.727	204.813
1.295	49.5367	145.543	204.921
1.2975	49.6126	145.359	205.028
1.3	49.6886	145.177	205.135
1.3025	49.7648	144.994	205.241
1.305	49.841	144.812	205.347
1.3075	49.9173	144.631	205.452
1.31	49.9936	144.45	205.556
1.3125	50.0701	144.27	205.66
1.315	50.1466	144.09	205.763
1.3175	50.2232	143.911	205.866
1.32	50.2999	143.732	205.968
1.3225	50.3766	143.553	206.07
1.325	50.4535	143.376	206.171
1.3275	50.5304	143.198	206.271
1.33	50.6073	143.021	206.371
1.3325	50.6844	142.845	206.47
1.335	50.7615	142.669	206.569
1.3375	50.8387	142.494	206.667
1.34	50.916	142.319	206.765
1.3425	50.9933	142.145	206.862
1.345	51.0707	141.971	206.959
1.3475	51.1482	141.797	207.055
1.35	51.2257	141.624	207.15
1.3525	51.3033	141.452	207.245
1.355	51.381	141.28	207.339
1.3575	51.4587	141.108	207.433
1.36	51.5365	140.937	207.526
1.3625	51.6144	140.767	207.619
1.365	51.6923	140.597	207.711
1.3675	51.7702	140.427	207.802
1.37	51.8483	140.258	207.893
1.3725	51.9264	140.09	207.984
1.375	52.0045	139.922	208.074
1.3775	52.0827	139.754	208.163
1.38	52.161	139.587	208.252
1.3825	52.2393	139.42	208.341
1.385	52.3177	139.254	208.429
1.3875	52.3961	139.088	208.516
1.39	52.4746	138.923	208.603
1.3925	52.5531	138.758	208.689
1.395	52.6317	138.593	208.775
1.3975	52.7103	138.43	208.86
1.4	52.789	138.266	208.945
1.4025	52.8678	138.103	209.029
1.405	52.9465	137.941	209.113
1.4075	53.0254	137.779	209.196
1.41	53.1042	137.617	209.279
1.4125	53.1832	137.456	209.361
1.415	53.2621	137.295	209.443
1.4175	53.3411	137.135	209.524
1.42	53.4202	136.975	209.604
1.4225	53.4993	136.816	209.685
1.425	53.5784	136.657	209.764
1.4275	53.6576	136.499	209.843
1.43	53.7368	136.341	209.922
1.4325	53.8161	136.184	210
1.435	53.8954	136.027	210.078
1.4375	53.9747	135.87	210.155
1.44	54.0541	135.714	210.232
1.4425	54.1335	135.558	210.308
1.445	54.2129	135.403	210.384
1.4475	54.2924	135.248	210.459
1.45	54.3719	135.094	210.534
1.4525	54.4515	134.94	210.608
1.455	54.5311	134.787	210.682
1.4575	54.6107	134.634	210.756
1.46	54.6903	134.481	210.829
1.4625	54.77	134.329	210.901
1.465	54.8497	134.177	210.973
1.4675	54.9295	134.026	211.044
1.47	55.0093	133.875	211.116
1.4725	55.0891	133.725	211.186
1.475	55.1689	133.575	211.256
1.4775	55.2487	133.425	211.326
1.48	55.3286	133.276	211.395
1.4825	55.4085	133.128	211.464
1.485	55.4885	132.98	211.532
1.4875	55.5684	132.832	211.6
1.49	55.6484	132.684	211.667
1.4925	55.7284	132.538	211.734
1.495	55.8084	132.391	211.8
1.4975	55.8885	132.245	211.866
1.5	55.9685	132.099	211.932
1.5025	56.0486	131.954	211.997
1.505	56.1287	131.809	212.062
1.5075	56.2089	131.665	212.126
1.51	56.289	131.521	212.19
1.5125	56.3692	131.378	212.253
1.515	56.4494	131.235	212.316
1.5175	56.5296	131.092	212.379
1.52	56.6098	130.95	212.441
1.5225	56.69	130.808	212.502
1.525	56.7703	130.666	212.563
1.5275	56.8505	130.525	212.624
1.53	56.9308	130.385	212.684
1.5325	57.0111	130.245	212.744
1.535	57.0914	130.105	212.804
1.5375	57.1717	129.965	212.863
1.54	57.252	129.826	212.921
1.5425	57.3324	129.688	212.98
1.545	57.4127	129.55	213.037
1.5475	57.4931	129.412	213.095
1.55	57.5734	129.275	213.152
1.5525	57.6538	129.138	213.208
1.555	57.7342	129.001	213.264
1.5575	57.8146	128.865	213.32
1.56	57.895	128.73	213.375
1.5625	57.9754	128.594	213.43
1.565	58.0558	128.459	213.485
1.5675	58.1362	128.325	213.539
1.57	58.2166	128.191	213.593
1.5725	58.297	128.057	213.646
1.575	58.3775	127.924	213.699
1.5775	58.4579	127.791	213.751
1.58	58.5383	127.658	213.803
1.5825	58.6188	127.526	213.855
1.585	58.6992	127.394	213.906
1.5875	58.7796	127.263	213.957
1.59	58.8601	127.132	214.008
1.5925	58.9405	127.002	214.058
1.595	59.0209	126.871	214.108
1.5975	59.1014	126.742	214.157
1.6	59.1818	126.612	214.206
1.6025	59.2622	126.483	214.255
1.605	59.3427	126.355	214.303
1.6075	59.4231	126.226	214.351
1.61	59.5035	126.098	214.398
1.6125	59.5839	125.971	214.445
1.615	59.6643	125.844	214.492
1.6175	59.7447	125.717	214.538
1.62	59.8251	125.591	214.584
1.6225	59.9055	125.465	214.63
1.625	59.9859	125.339	214.675
1.6275	60.0663	125.214	214.72
1.63	60.1466	125.089	214.764
1.6325	60.227	124.965	214.808
1.635	60.3073	124.841	214.852
1.6375	60.3877	124.717	214.895
1.64	60.468	124.594	214.938
1.6425	60.5483	124.471	214.981
1.645	60.6286	124.348	215.023
1.6475	60.7089	124.226	215.065
1.65	60.7892	124.104	215.107
1.6525	60.8695	123.983	215.148
1.655	60.9497	123.862	215.189
1.6575	61.03	123.741	215.229
1.66	61.1102	123.621	215.269
1.6625	61.1904	123.501	215.309
1.665	61.2706	123.381	215.348
1.6675	61.3508	123.262	215.388
1.67	61.431	123.143	215.426
1.6725	61.5112	123.024	215.465
1.675	61.5913	122.906	215.503
1.6775	61.6714	122.788	215.54
1.68	61.7515	122.671	215.578
1.6825	61.8316	122.554	215.615
1.685	61.9117	122.437	215.652
1.6875	61.9917	122.32	215.688
1.69	62.0717	122.204	215.724
1.6925	62.1518	122.089	215.76
1.695	62.2317	121.973	215.795
1.6975	62.3117	121.858	215.83
1.7	62.3917	121.744	215.865
1.7025	62.4716	121.629	215.899
1.705	62.5515	121.515	215.933
1.7075	62.6314	121.402	215.967
1.71	62.7112	121.289	216
1.7125	62.7911	121.176	216.033
1.715	62.8709	121.063	216.066
1.7175	62.9507	120.951	216.098
1.72	63.0304	120.839	216.131
1.7225	63.1102	120.728	216.162
1.725	63.1899	120.616	216.194
1.7275	63.2696	120.506	216.225
1.73	63.3492	120.395	216.256
1.7325	63.4289	120.285	216.286
1.735	63.5085	120.175	216.316
1.7375	63.588	120.066	216.346
1.74	63.6676	119.957	216.376
1.7425	63.7471	119.848	216.405
1.745	63.8266	119.739	216.434
1.7475	63.9061	119.631	216.463
1.75	63.9855	119.523	216.491
1.7525	64.0649	119.416	216.519
1.755	64.1443	119.309	216.547
1.7575	64.2236	119.202	216.574
1.76	64.3029	119.096	216.601
1.7625	64.3822	118.989	216.628
1.765	64.4615	118.884	216.655
1.7675	64.5407	118.778	216.681
1.77	64.6199	118.673	216.707
1.7725	64.699	118.568	216.733
1.775	64.7781	118.464	216.758
1.7775	64.8572	118.36	216.783
1.78	64.9363	118.256	216.808
1.7825	65.0153	118.152	216.832
1.785	65.0943	118.049	216.857
1.7875	65.1732	117.946	216.88
1.79	65.2521	117.844	216.904
1.7925	65.331	117.742	216.927
1.795	65.4098	117.64	216.95
1.7975	65.4886	117.538	216.973
1.8	65.5674	117.437	216.996
1.8025	65.6461	117.336	217.018
1.805	65.7248	117.235	217.04
1.8075	65.8035	117.135	217.062
1.81	65.8821	117.035	217.083
1.8125	65.9606	116.935	217.104
1.815	66.0392	116.836	217.125
1.8175	66.1177	116.737	217.145
1.82	66.1961	116.638	217.166
1.8225	66.2745	116.54	217.186
1.825	66.3529	116.442	217.205
1.8275	66.4312	116.344	217.225
1.83	66.5095	116.246	217.244
1.8325	66.5878	116.149	217.263
1.835	66.666	116.052	217.282
1.8375	66.7441	115.956	217.3
1.84	66.8222	115.86	217.318
1.8425	66.9003	115.764	217.336
1.845	66.9784	115.668	217.354
1.8475	67.0563	115.573	217.371
1.85	67.1343	115.478	217.388
1.8525	67.2122	115.383	217.405
1.855	67.29	115.288	217.421
1.8575	67.3679	115.194	217.438
1.86	67.4456	115.101	217.454
1.8625	67.5233	115.007	217.47
1.865	67.601	114.914	217.485
1.8675	67.6786	114.821	217.5
1.87	67.7562	114.728	217.516
1.8725	67.8338	114.636	217.53
1.875	67.9112	114.544	217.545
1.8775	67.9887	114.452	217.559
1.88	68.0661	114.361	217.573
1.8825	68.1434	114.27	217.587
1.885	68.2207	114.179	217.601
1.8875	68.2979	114.088	217.614
1.89	68.3751	113.998	217.627
1.8925	68.4523	113.908	217.64
1.895	68.5294	113.818	217.652
1.8975	68.6064	113.729	217.665
1.9	68.6834	113.64	217.677
1.9025	68.7603	113.551	217.689
1.905	68.8372	113.462	217.701
1.9075	68.9141	113.374	217.712
1.91	68.9909	113.286	217.723
1.9125	69.0676	113.198	217.734
1.915	69.1443	113.111	217.745
1.9175	69.2209	113.024	217.755
1.92	69.2975	112.937	217.765
1.9225	69.374	112.85	217.776
1.925	69.4505	112.764	217.785
1.9275	69.5269	112.678	217.795
1.93	69.6033	112.593	217.804
1.9325	69.6796	112.507	217.813
1.935	69.7558	112.422	217.822
1.9375	69.832	112.337	217.831
1.94	69.9082	112.253	217.839
1.9425	69.9842	112.168	217.848
1.945	70.0603	112.084	217.856
1.9475	70.1363	112	217.863
1.95	70.2122	111.917	217.871
1.9525	70.288	111.834	217.878
1.955	70.3638	111.751	217.885
1.9575	70.4396	111.668	217.892
1.96	70.5153	111.586	217.899
1.9625	70.5909	111.504	217.905
1.965	70.6665	111.422	217.912
1.9675	70.742	111.34	217.918
1.97	70.8175	111.259	217.924
1.9725	70.8929	111.178	217.929
1.975	70.9682	111.097	217.935
1.9775	71.0435	111.017	217.94
1.98	71.1187	110.936	217.945
1.9825	71.1939	110.856	217.95
1.985	71.269	110.777	217.954
1.9875	71.344	110.697	217.959
1.99	71.419	110.618	217.963
1.9925	71.4939	110.539	217.967
1.995	71.5687	110.461	217.971
1.9975	71.6435	110.382	217.974
2	71.7183	110.304	217.978
2.0025	71.7929	110.226	217.981
2.005	71.8676	110.149	217.984
2.0075	71.9421	110.071	217.987
2.01	72.0166	109.994	217.989
2.0125	72.091	109.917	217.992
2.015	72.1654	109.841	217.994
2.0175	72.2397	109.764	217.996
2.02	72.3139	109.688	217.998
2.0225	72.388	109.613	217.999
2.025	72.4621	109.537	218.001
2.0275	72.5362	109.462	218.002
2.03	72.6102	109.387	218.003
2.0325	72.6841	109.312	218.004
2.035	72.7579	109.237	218.005
2.0375	72.8317	109.163	218.005
2.04	72.9054	109.089	218.005
2.0425	72.979	109.015	218.006
2.045	73.0526	108.942	218.005
2.0475	73.1261	108.869	218.005
2.05	73.1996	108.796	218.005
2.0525	73.2729	108.723	218.004
2.055	73.3463	108.65	218.003
2.0575	73.4195	108.578	218.002
2.06	73.4927	108.506	218.001
2.0625	73.5658	108.434	218
2.065	73.6388	108.363	217.998
2.0675	73.7118	108.291	217.997
2.07	73.7847	108.22	217.995
2.0725	73.8575	108.15	217.993
2.075	73.9303	108.079	217.991
2.0775	74.003	108.009	217.988
2.08	74.0756	107.939	217.986
2.0825	74.1482	107.869	217.983
2.085	74.2207	107.799	217.98
2.0875	74.2931	107.73	217.977
2.09	74.3654	107.661	217.974
2.0925	74.4377	107.592	217.97
2.095	74.5099	107.523	217.967
2.0975	74.582	107.455	217.963
2.1	74.6541	107.387	217.959
2.1025	74.7261	107.319	217.955
2.105	74.798	107.251	217.951
2.1075	74.8699	107.184	217.947
2.11	74.9416	107.116	217.942
2.1125	75.0133	107.049	217.937
2.115	75.085	106.983	217.932
2.1175	75.1565	106.916	217.927
2.12	75.228	106.85	217.922
2.1225	75.2994	106.784	217.917
2.125	75.3708	106.718	217.911
2.1275	75.442	106.652	217.906
2.13	75.5132	106.587	217.9
2.1325	75.5844	106.522	217.894
2.135	75.6554	106.457	217.888
2.1375	75.7264	106.392	217.881
2.14	75.7973	106.328	217.875
2.1425	75.8681	106.264	217.868
2.145	75.9388	106.2	217.862
2.1475	76.0095	106.136	217.855
2.15	76.0801	106.072	217.848
2.1525	76.1506	106.009	217.84
2.155	76.2211	105.946	217.833
2.1575	76.2915	105.883	217.826
2.16	76.3617	105.82	217.818
2.1625	76.432	105.758	217.81
2.165	76.5021	105.696	217.802
2.1675	76.5722	105.634	217.794
2.17	76.6422	105.572	217.786
2.1725	76.7121	105.51	217.777
2.175	76.7819	105.449	217.769
2.1775	76.8517	105.388	217.76
2.18	76.9214	105.327	217.752
2.1825	76.991	105.266	217.743
2.185	77.0605	105.206	217.733
2.1875	77.1299	105.146	217.724
2.19	77.1993	105.086	217.715
2.1925	77.2686	105.026	217.705
2.195	77.3378	104.966	217.696
2.1975	77.4069	104.907	217.686
2.2	77.476	104.848	217.676
2.2025	77.545	104.789	217.666
2.205	77.6139	104.73	217.656
2.2075	77.6827	104.672	217.646
2.21	77.7514	104.613	217.635
2.2125	77.8201	104.555	217.625
2.215	77.8886	104.498	217.614
2.2175	77.9571	104.44	217.603
2.22	78.0256	104.382	217.592
2.2225	78.0939	104.325	217.581
2.225	78.1622	104.268	217.57
2.2275	78.2303	104.211	217.558
2.23	78.2984	104.155	217.547
2.2325	78.3664	104.098	217.535
2.235	78.4344	104.042	217.524
2.2375	78.5022	103.986	217.512
2.24	78.57	103.93	217.5
2.2425	78.6377	103.875	217.488
2.245	78.7053	103.819	217.475
2.2475	78.7728	103.764	217.463
2.25	78.8403	103.709	217.45
2.2525	78.9076	103.654	217.438
2.255	78.9749	103.6	217.425
2.2575	79.0421	103.546	217.412
2.26	79.1092	103.491	217.399
2.2625	79.1762	103.437	217.386
2.265	79.2432	103.384	217.373
2.2675	79.31	103.33	217.36
2.27	79.3768	103.277	217.346
2.2725	79.4435	103.224	217.333
2.275	79.5101	103.171	217.319
2.2775	79.5767	103.118	217.305
2.28	79.6431	103.065	217.291
2.2825	79.7095	103.013	217.277
2.285	79.7758	102.961	217.263
2.2875	79.8419	102.909	217.249
2.29	79.9081	102.857	217.235
2.2925	79.9741	102.806	217.22
2.295	80.04	102.754	217.206
2.2975	80.1059	102.703	217.191
2.3	80.1716	102.652	217.176
2.3025	80.2373	102.601	217.161
2.305	80.3029	102.551	217.146
2.3075	80.3684	102.5	217.131
2.31	80.4339	102.45	217.116
2.3125	80.4992	102.4	217.101
2.315	80.5644	102.35	217.085
2.3175	80.6296	102.301	217.07
2.32	80.6947	102.251	217.054
2.3225	80.7597	102.202	217.038
2.325	80.8246	102.153	217.023
2.3275	80.8894	102.104	217.007
2.33	80.9542	102.055	216.991
2.3325	81.0188	102.007	216.974
2.335	81.0834	101.958	216.958
2.3375	81.1479	101.91	216.942
2.34	81.2122	101.862	216.925
2.3425	81.2765	101.815	216.909
2.345	81.3408	101.767	216.892
2.3475	81.4049	101.72	216.875
2.35	81.4689	101.673	216.859
2.3525	81.5329	101.626	216.842
2.355	81.5967	101.579	216.825
2.3575	81.6605	101.532	216.807
2.36	81.7242	101.486	216.79
2.3625	81.7878	101.439	216.773
2.365	81.8513	101.393	216.755
2.3675	81.9147	101.347	216.738
2.37	81.9781	101.302	216.72
2.3725	82.0413	101.256	216.703
2.375	82.1045	101.211	216.685
2.3775	82.1675	101.165	216.667
2.38	82.2305	101.12	216.649
2.3825	82.2934	101.076	216.631
2.385	82.3562	101.031	216.613
2.3875	82.4189	100.987	216.595
2.39	82.4815	100.942	216.576
2.3925	82.544	100.898	216.558
2.395	82.6065	100.854	216.539
2.3975	82.6688	100.81	216.521
2.4	82.7311	100.767	216.502
2.4025	82.7933	100.723	216.483
2.405	82.8553	100.68	216.465
2.4075	82.9173	100.637	216.446
2.41	82.9792	100.594	216.427
2.4125	83.041	100.551	216.408
2.415	83.1027	100.509	216.388
2.4175	83.1644	100.467	216.369
2.42	83.2259	100.424	216.35
2.4225	83.2873	100.382	216.33
2.425	83.3487	100.34	216.311
2.4275	83.41	100.299	216.291
2.43	83.4711	100.257	216.272
2.4325	83.5322	100.216	216.252
2.435	83.5932	100.175	216.232
2.4375	83.6541	100.134	216.212
2.44	83.7149	100.093	216.192
2.4425	83.7756	100.052	216.172
2.445	83.8362	100.012	216.152
2.4475	83.8968	99.9714	216.132
2.45	83.9572	99.9312	216.112
2.4525	84.0175	99.8913	216.091
2.455	84.0778	99.8514	216.071
2.4575	84.138	99.8118	216.05
2.46	84.198	99.7723	216.03
2.4625	84.258	99.7329	216.009
2.465	84.3179	99.6938	215.988
2.4675	84.3777	99.6548	215.968
2.47	84.4374	99.6159	215.947
2.4725	84.497	99.5772	215.926
2.475	84.5565	99.5387	215.905
2.4775	84.6159	99.5004	215.884
2.48	84.6752	99.4622	215.863
2.4825	84.7345	99.4242	215.841
2.485	84.7936	99.3863	215.82
2.4875	84.8526	99.3486	215.799
2.49	84.9116	99.3111	215.777
2.4925	84.9705	99.2737	215.756
2.495	85.0292	99.2365	215.734
2.4975	85.0879	99.1994	215.713
2.5	85.1465	99.1625	215.691
2.5025	85.205	99.1258	215.669
2.505	85.2633	99.0892	215.647
2.5075	85.3216	99.0527	215.626
2.51	85.3798	99.0165	215.604
2.5125	85.4379	98.9804	215.582
2.515	85.496	98.9444	215.56
2.5175	85.5539	98.9086	215.538
2.52	85.6117	98.873	215.515
2.5225	85.6694	98.8375	215.493
2.525	85.7271	98.8021	215.471
2.5275	85.7846	98.767	215.448
2.53	85.8421	98.7319	215.426
2.5325	85.8994	98.6971	215.404
2.535	85.9567	98.6624	215.381
2.5375	86.0138	98.6278	215.358
2.54	86.0709	98.5934	215.336
2.5425	86.1279	98.5591	215.313
2.545	86.1847	98.525	215.29
2.5475	86.2415	98.4911	215.267
2.55	86.2982	98.4573	215.245
2.5525	86.3548	98.4236	215.222
2.555	86.4113	98.3901	215.199
2.5575	86.4677	98.3568	215.176
2.56	86.524	98.3236	215.152
2.5625	86.5802	98.2905	215.129
2.565	86.6363	98.2576	215.106
2.5675	86.6923	98.2249	215.083
2.57	86.7483	98.1923	215.059
2.5725	86.8041	98.1598	215.036
2.575	86.8598	98.1275	215.013
2.5775	86.9154	98.0953	214.989
2.58	86.971	98.0633	214.966
2.5825	87.0264	98.0315	214.942
2.585	87.0818	97.9997	214.918
2.5875	87.137	97.9682	214.895
2.59	87.1922	97.9367	214.871
2.5925	87.2472	97.9054	214.847
2.595	87.3022	97.8743	214.824
2.5975	87.3571	97.8433	214.8
2.6	87.4118	97.8124	214.776
2.6025	87.4665	97.7817	214.752
2.605	87.5211	97.7512	214.728
2.6075	87.5756	97.7207	214.704
2.61	87.6299	97.6905	214.68
2.6125	87.6842	97.6603	214.655
2.615	87.7384	97.6303	214.631
2.6175	87.7925	97.6005	214.607
2.62	87.8465	97.5707	214.583
2.6225	87.9004	97.5412	214.558
2.625	87.9542	97.5117	214.534
2.6275	88.0079	97.4824	214.51
2.63	88.0615	97.4533	214.485
2.6325	88.115	97.4243	214.461
2.635	88.1684	97.3954	214.436
2.6375	88.2218	97.3667	214.412
2.64	88.275	97.338	214.387
2.6425	88.3281	97.3096	214.362
2.645	88.3811	97.2813	214.338
2.6475	88.4341	97.2531	214.313
2.65	88.4869	97.225	214.288
2.6525	88.5396	97.1971	214.263
2.655	88.5923	97.1693	214.238
2.6575	88.6448	97.1417	214.214
2.66	88.6972	97.1142	214.189
2.6625	88.7496	97.0868	214.164
2.665	88.8018	97.0596	214.139
2.6675	88.854	97.0325	214.114
2.67	88.906	97.0055	214.088
2.6725	88.958	96.9786	214.063
2.675	89.0098	96.9519	214.038
2.6775	89.0616	96.9254	214.013
2.68	89.1132	96.8989	213.988
2.6825	89.1648	96.8726	213.963
2.685	89.2163	96.8464	213.937
2.6875	89.2676	96.8204	213.912
2.69	89.3189	96.7945	213.887
2.6925	89.3701	96.7687	213.861
2.695	89.4211	96.7431	213.836
2.6975	89.4721	96.7175	213.81
2.7	89.523	96.6921	213.785
2.7025	89.5738	96.6669	213.759
2.705	89.6245	96.6418	213.734
2.7075	89.675	96.6167	213.708
2.71	89.7255	96.5919	213.683
2.7125	89.7759	96.5671	213.657
2.715	89.8262	96.5425	213.631
2.7175	89.8764	96.518	213.606
2.72	89.9265	96.4937	213.58
2.7225	89.9765	96.4694	213.554
2.725	90.0264	96.4453	213.528
2.7275	90.0762	96.4213	213.503
2.73	90.1258	96.3975	213.477
2.7325	90.1754	96.3737	213.451
2.735	90.2249	96.3501	213.425
2.7375	90.2744	96.3266	213.399
2.74	90.3237	96.3033	213.373
2.7425	90.3729	96.28	213.347
2.745	90.422	96.2569	213.321
2.7475	90.471	96.2339	213.295
2.75	90.5199	96.2111	213.269
2.7525	90.5687	96.1883	213.243
2.755	90.6174	96.1657	213.217
2.7575	90.666	96.1432	213.191
2.76	90.7145	96.1209	213.165
2.7625	90.763	96.0986	213.138
2.765	90.8113	96.0765	213.112
2.7675	90.8595	96.0545	213.086
2.77	90.9076	96.0326	213.06
2.7725	90.9556	96.0108	213.034
2.775	91.0036	95.9892	213.007
2.7775	91.0514	95.9676	212.981
2.78	91.0991	95.9462	212.955
2.7825	91.1467	95.9249	212.928
2.785	91.1943	95.9038	212.902
2.7875	91.2417	95.8827	212.876
2.79	91.289	95.8618	212.849
2.7925	91.3363	95.8409	212.823
2.795	91.3834	95.8202	212.796
2.7975	91.4304	95.7997	212.77
2.8	91.4774	95.7792	212.743
2.8025	91.5242	95.7588	212.717
2.805	91.571	95.7386	212.69
2.8075	91.6176	95.7185	212.664
2.81	91.6642	95.6985	212.637
2.8125	91.7106	95.6786	212.611
2.815	91.7569	95.6588	212.584
2.8175	91.8032	95.6392	212.558
2.82	91.8493	95.6196	212.531
2.8225	91.8954	95.6002	212.504
2.825	91.9413	95.5809	212.478
2.8275	91.9872	95.5617	212.451
2.83	92.0329	95.5426	212.424
2.8325	92.0786	95.5236	212.398
2.835	92.1242	95.5048	212.371
2.8375	92.1696	95.486	212.344
2.84	92.215	95.4674	212.318
2.8425	92.2602	95.4489	212.291
2.845	92.3054	95.4305	212.264
2.8475	92.3504	95.4122	212.237
2.85	92.3954	95.394	212.211
2.8525	92.4403	95.3759	212.184
2.855	92.485	95.3579	212.157
2.8575	92.5297	95.3401	212.13
2.86	92.5743	95.3223	212.103
2.8625	92.6188	95.3047	212.077
2.865	92.6631	95.2871	212.05
2.8675	92.7074	95.2697	212.023
2.87	92.7516	95.2524	211.996
2.8725	92.7956	95.2352	211.969
2.875	92.8396	95.2181	211.942
2.8775	92.8835	95.2011	211.915
2.88	92.9273	95.1842	211.889
2.8825	92.971	95.1674	211.862
2.885	93.0145	95.1508	211.835
2.8875	93.058	95.1342	211.808
2.89	93.1014	95.1177	211.781
2.8925	93.1447	95.1014	211.754
2.895	93.1879	95.0852	211.727
2.8975	93.231	95.069	211.7
2.9	93.274	95.053	211.673
2.9025	93.3169	95.037	211.646
2.905	93.3597	95.0212	211.619
2.9075	93.4024	95.0055	211.592
2.91	93.4449	94.9899	211.565
2.9125	93.4874	94.9744	211.538
2.915	93.5298	94.959	211.511
2.9175	93.5722	94.9436	211.484
2.92	93.6144	94.9284	211.457
2.9225	93.6565	94.9133	211.43
2.925	93.6985	94.8983	211.403
2.9275	93.7404	94.8834	211.376
2.93	93.7822	94.8686	211.349
2.9325	93.8239	94.8539	211.322
2.935	93.8655	94.8393	211.295
2.9375	93.907	94.8249	211.268
2.94	93.9485	94.8105	211.241
2.9425	93.9898	94.7962	211.214
2.945	94.031	94.782	211.187
2.9475	94.0721	94.7679	211.16
2.95	94.1131	94.7539	211.133
2.9525	94.1541	94.74	211.106
2.955	94.1949	94.7262	211.079
2.9575	94.2356	94.7125	211.052
2.96	94.2763	94.6989	211.025
2.9625	94.3168	94.6854	210.998
2.965	94.3572	94.672	210.971
2.9675	94.3976	94.6587	210.944
2.97	94.4378	94.6455	210.917
2.9725	94.478	94.6324	210.89
2.975	94.518	94.6193	210.863
2.9775	94.558	94.6064	210.836
2.98	94.5978	94.5936	210.809
2.9825	94.6376	94.5809	210.782
2.985	94.6772	94.5682	210.755
2.9875	94.7168	94.5557	210.728
2.99	94.7562	94.5433	210.701
2.9925	94.7956	94.5309	210.673
2.995	94.8349	94.5187	210.646
2.9975	94.874	94.5065	210.619
3	94.9131	94.4944	210.592
3.0025	94.9521	94.4825	210.565
3.005	94.991	94.4706	210.538
3.0075	95.0297	94.4588	210.511
3.01	95.0684	94.4471	210.484
3.0125	95.107	94.4355	210.457
3.015	95.1455	94.424	210.431
3.0175	95.1839	94.4126	210.404
3.02	95.2222	94.4013	210.377
3.0225	95.2604	94.39	210.35
3.025	95.2985	94.3789	210.323
3.0275	95.3365	94.3679	210.296
3.03	95.3744	94.3569	210.269
3.0325	95.4122	94.346	210.242
3.035	95.4499	94.3353	210.215
3.0375	95.4875	94.3246	210.188
3.04	95.525	94.314	210.161
3.0425	95.5624	94.3035	210.134
3.045	95.5997	94.2931	210.107
3.0475	95.637	94.2827	210.08
3.05	95.6741	94.2725	210.053
3.0525	95.7111	94.2623	210.027
3.055	95.7481	94.2523	210
3.0575	95.7849	94.2423	209.973
3.06	95.8217	94.2324	209.946
3.0625	95.8583	94.2226	209.919
3.065	95.8948	94.2129	209.892
3.0675	95.9313	94.2033	209.865
3.07	95.9677	94.1937	209.839
3.0725	96.0039	94.1843	209.812
3.075	96.0401	94.1749	209.785
3.0775	96.0762	94.1656	209.758
3.08	96.1121	94.1564	209.731
3.0825	96.148	94.1473	209.705
3.085	96.1838	94.1383	209.678
3.0875	96.2195	94.1294	209.651
3.09	96.2551	94.1205	209.624
3.0925	96.2906	94.1117	209.598
3.095	96.3259	94.1031	209.571
3.0975	96.3613	94.0945	209.544
3.1	96.3965	94.0859	209.518
3.1025	96.4316	94.0775	209.491
3.105	96.4666	94.0692	209.464
3.1075	96.5015	94.0609	209.438
3.11	96.5363	94.0527	209.411
3.1125	96.5711	94.0446	209.384
3.115	96.6057	94.0366	209.358
3.1175	96.6402	94.0286	209.331
3.12	96.6747	94.0208	209.305
3.1225	96.709	94.013	209.278
3.125	96.7433	94.0053	209.251
3.1275	96.7774	93.9977	209.225
3.13	96.8115	93.9902	209.198
3.1325	96.8455	93.9827	209.172
3.135	96.8793	93.9753	209.145
3.1375	96.9131	93.9681	209.119
3.14	96.9468	93.9608	209.092
3.1425	96.9804	93.9537	209.066
3.145	97.0139	93.9467	209.039
3.1475	97.0473	93.9397	209.013
3.15	97.0806	93.9328	208.987
3.1525	97.1138	93.926	208.96
3.155	97.1469	93.9192	208.934
3.1575	97.1799	93.9126	208.908
3.16	97.2128	93.906	208.881
3.1625	97.2457	93.8995	208.855
3.165	97.2784	93.8931	208.829
3.1675	97.3111	93.8867	208.802
3.17	97.3436	93.8804	208.776
3.1725	97.3761	93.8742	208.75
3.175	97.4084	93.8681	208.723
3.1775	97.4407	93.8621	208.697
3.18	97.4729	93.8561	208.671
3.1825	97.505	93.8502	208.645
3.185	97.5369	93.8444	208.619
3.1875	97.5688	93.8387	208.593
3.19	97.6006	93.833	208.566
3.1925	97.6323	93.8274	208.54
3.195	97.664	93.8219	208.514
3.1975	97.6955	93.8164	208.488
3.2	97.7269	93.8111	208.462
3.2025	97.7582	93.8058	208.436
3.205	97.7895	93.8006	208.41
3.2075	97.8206	93.7954	208.384
3.21	97.8517	93.7903	208.358
3.2125	97.8826	93.7853	208.332
3.215	97.9135	93.7804	208.306
3.2175	97.9443	93.7756	208.28
3.22	97.975	93.7708	208.254
3.2225	98.0056	93.7661	208.228
3.225	98.0361	93.7614	208.203
3.2275	98.0665	93.7569	208.177
3.23	98.0968	93.7524	208.151
3.2325	98.127	93.7479	208.125
3.235	98.1571	93.7436	208.099
3.2375	98.1872	93.7393	208.074
3.24	98.2171	93.7351	208.048
3.2425	98.247	93.7309	208.022
3.245	98.2767	93.7269	207.996
3.2475	98.3064	93.7229	207.971
3.25	98.336	93.7189	207.945
3.2525	98.3655	93.7151	207.919
3.255	98.3949	93.7113	207.894
3.2575	98.4242	93.7075	207.868
3.26	98.4534	93.7039	207.843
3.2625	98.4825	93.7003	207.817
3.265	98.5115	93.6968	207.792
3.2675	98.5405	93.6933	207.766
3.27	98.5693	93.6899	207.741
3.2725	98.5981	93.6866	207.715
3.275	98.6267	93.6834	207.69
3.2775	98.6553	93.6802	207.664
3.28	98.6838	93.6771	207.639
3.2825	98.7122	93.674	207.614
3.285	98.7405	93.671	207.588
3.2875	98.7687	93.6681	207.563
3.29	98.7968	93.6653	207.538
3.2925	98.8249	93.6625	207.513
3.295	98.8528	93.6598	207.487
3.2975	98.8807	93.6571	207.462
3.3	98.9084	93.6545	207.437
3.3025	98.9361	93.652	207.412
3.305	98.9637	93.6496	207.387
3.3075	98.9912	93.6472	207.362
3.31	99.0186	93.6448	207.337
3.3125	99.0459	93.6426	207.312
3.315	99.0731	93.6404	207.287
3.3175	99.1002	93.6382	207.262
3.32	99.1273	93.6362	207.237
3.3225	99.1542	93.6341	207.212
3.325	99.1811	93.6322	207.187
3.3275	99.2079	93.6303	207.162
3.33	99.2346	93.6285	207.137
3.3325	99.2612	93.6267	207.112
3.335	99.2877	93.625	207.087
3.3375	99.3141	93.6234	207.063
3.34	99.3404	93.6218	207.038
3.3425	99.3667	93.6203	207.013
3.345	99.3928	93.6188	206.988
3.3475	99.4189	93.6175	206.964
3.35	99.4448	93.6161	206.939
3.3525	99.4707	93.6149	206.914
3.355	99.4965	93.6137	206.89
3.3575	99.5222	93.6125	206.865
3.36	99.5479	93.6114	206.841
3.3625	99.5734	93.6104	206.816
3.365	99.5989	93.6094	206.792
3.3675	99.6242	93.6085	206.767
3.37	99.6495	93.6077	206.743
3.3725	99.6747	93.6069	206.718
3.375	99.6998	93.6061	206.694
3.3775	99.7248	93.6055	206.67
3.38	99.7497	93.6048	206.645
3.3825	99.7745	93.6043	206.621
3.385	99.7993	93.6038	206.597
3.3875	99.824	93.6034	206.573
3.39	99.8485	93.603	206.548
3.3925	99.873	93.6026	206.524
3.395	99.8974	93.6024	206.5
3.3975	99.9217	93.6022	206.476
3.4	99.946	93.602	206.452
3.4025	99.9701	93.6019	206.428
3.405	99.9942	93.6019	206.404
3.4075	100.018	93.6019	206.38
3.41	100.042	93.602	206.356
3.4125	100.066	93.6021	206.332
3.415	100.09	93.6023	206.308
3.4175	100.113	93.6025	206.284
3.42	100.137	93.6028	206.26
3.4225	100.16	93.6031	206.237
3.425	100.184	93.6035	206.213
3.4275	100.207	93.604	206.189
3.43	100.23	93.6045	206.165
3.4325	100.253	93.6051	206.142
3.435	100.276	93.6057	206.118
3.4375	100.299	93.6064	206.095
3.44	100.322	93.6071	206.071
3.4425	100.345	93.6079	206.047
3.445	100.367	93.6087	206.024
3.4475	100.39	93.6096	206
3.45	100.413	93.6105	205.977
3.4525	100.435	93.6115	205.953
3.455	100.457	93.6126	205.93
3.4575	100.48	93.6137	205.907
3.46	100.502	93.6148	205.883
3.4625	100.524	93.616	205.86
3.465	100.546	93.6173	205.837
3.4675	100.568	93.6186	205.814
3.47	100.59	93.6199	205.79
3.4725	100.611	93.6213	205.767
3.475	100.633	93.6228	205.744
3.4775	100.655	93.6243	205.721
3.48	100.676	93.6259	205.698
3.4825	100.698	93.6275	205.675
3.485	100.719	93.6291	205.652
3.4875	100.74	93.6308	205.629
3.49	100.762	93.6326	205.606
3.4925	100.783	93.6344	205.583
3.495	100.804	93.6362	205.56
3.4975	100.825	93.6382	205.537
3.5	100.845	93.6401	205.514
3.5025	100.866	93.6421	205.492
3.505	100.887	93.6442	205.469
3.5075	100.907	93.6463	205.446
3.51	100.928	93.6484	205.424
3.5125	100.948	93.6506	205.401
3.515	100.969	93.6529	205.378
3.5175	100.989	93.6551	205.356
3.52	101.009	93.6575	205.333
3.5225	101.029	93.6599	205.311
3.525	101.049	93.6623	205.288
3.5275	101.069	93.6648	205.266
3.53	101.089	93.6673	205.243
3.5325	101.109	93.6699	205.221
3.535	101.129	93.6725	205.199
3.5375	101.148	93.6752	205.176
3.54	101.168	93.6779	205.154
3.5425	101.187	93.6806	205.132
3.545	101.207	93.6835	205.11
3.5475	101.226	93.6863	205.088
3.55	101.245	93.6892	205.065
3.5525	101.265	93.6921	205.043
3.555	101.284	93.6951	205.021
3.5575	101.303	93.6981	204.999
3.56	101.322	93.7012	204.977
3.5625	101.34	93.7043	204.955
3.565	101.359	93.7075	204.933
3.5675	101.378	93.7107	204.912
3.57	101.396	93.714	204.89
3.5725	101.415	93.7173	204.868
3.575	101.433	93.7206	204.846
3.5775	101.452	93.724	204.824
3.58	101.47	93.7274	204.803
3.5825	101.488	93.7309	204.781
3.585	101.506	93.7344	204.759
3.5875	101.524	93.7379	204.738
3.59	101.542	93.7415	204.716
3.5925	101.56	93.7451	204.695
3.595	101.578	93.7488	204.673
3.5975	101.596	93.7525	204.652
3.6	101.613	93.7563	204.63
3.6025	101.631	93.7601	204.609
3.605	101.648	93.7639	204.588
3.6075	101.666	93.7678	204.566
3.61	101.683	93.7718	204.545
3.6125	101.701	93.7757	204.524
3.615	101.718	93.7797	204.503
3.6175	101.735	93.7838	204.481
3.62	101.752	93.7879	204.46
3.6225	101.769	93.792	204.439
3.625	101.786	93.7962	204.418
3.6275	101.802	93.8004	204.397
3.63	101.819	93.8046	204.376
3.6325	101.836	93.8089	204.355
3.635	101.852	93.8132	204.334
3.6375	101.869	93.8176	204.313
3.64	101.885	93.822	204.293
3.6425	101.902	93.8264	204.272
3.645	101.918	93.8309	204.251
3.6475	101.934	93.8354	204.23
3.65	101.95	93.84	204.21
3.6525	101.966	93.8446	204.189
3.655	101.982	93.8492	204.168
3.6575	101.998	93.8539	204.148
3.66	102.014	93.8586	204.127
3.6625	102.03	93.8633	204.107
3.665	102.046	93.8681	204.086
3.6675	102.061	93.8729	204.066
3.67	102.077	93.8778	204.046
3.6725	102.092	93.8827	204.025
3.675	102.107	93.8876	204.005
3.6775	102.123	93.8926	203.985
3.68	102.138	93.8976	203.964
3.6825	102.153	93.9026	203.944
3.685	102.168	93.9077	203.924
3.6875	102.183	93.9128	203.904
3.69	102.198	93.9179	203.884
3.6925	102.213	93.9231	203.864
3.695	102.228	93.9283	203.844
3.6975	102.243	93.9336	203.824
3.7	102.257	93.9389	203.804
3.7025	102.272	93.9442	203.784
3.705	102.286	93.9495	203.764
3.7075	102.301	93.9549	203.744
3.71	102.315	93.9603	203.725
3.7125	102.329	93.9658	203.705
3.715	102.344	93.9713	203.685
3.7175	102.358	93.9768	203.666
3.72	102.372	93.9824	203.646
3.7225	102.386	93.988	203.626
3.725	102.4	93.9936	203.607
3.7275	102.413	93.9992	203.587
3.73	102.427	94.0049	203.568
3.7325	102.441	94.0106	203.548
3.735	102.455	94.0164	203.529
3.7375	102.468	94.0222	203.51
3.74	102.482	94.028	203.49
3.7425	102.495	94.0338	203.471
3.745	102.508	94.0397	203.452
3.7475	102.522	94.0456	203.433
3.75	102.535	94.0516	203.413
3.7525	102.548	94.0576	203.394
3.755	102.561	94.0636	203.375
3.7575	102.574	94.0696	203.356
3.76	102.587	94.0757	203.337
3.7625	102.6	94.0818	203.318
3.765	102.613	94.0879	203.299
3.7675	102.625	94.0941	203.28
3.77	102.638	94.1003	203.262
3.7725	102.651	94.1065	203.243
3.775	102.663	94.1127	203.224
3.7775	102.676	94.119	203.205
3.78	102.688	94.1253	203.187
3.7825	102.7	94.1317	203.168
3.785	102.713	94.138	203.149
3.7875	102.725	94.1444	203.131
3.79	102.737	94.1509	203.112
3.7925	102.749	94.1573	203.094
3.795	102.761	94.1638	203.075
3.7975	102.773	94.1703	203.057
3.8	102.785	94.1769	203.039
3.8025	102.796	94.1834	203.02
3.805	102.808	94.19	203.002
3.8075	102.82	94.1967	202.984
3.81	102.831	94.2033	202.965
3.8125	102.843	94.21	202.947
3.815	102.854	94.2167	202.929
3.8175	102.866	94.2234	202.911
3.82	102.877	94.2302	202.893
3.8225	102.888	94.237	202.875
3.825	102.899	94.2438	202.857
3.8275	102.91	94.2507	202.839
3.83	102.921	94.2575	202.821
3.8325	102.932	94.2644	202.803
3.835	102.943	94.2713	202.785
3.8375	102.954	94.2783	202.768
3.84	102.965	94.2853	202.75
3.8425	102.976	94.2923	202.732
3.845	102.986	94.2993	202.714
3.8475	102.997	94.3064	202.697
3.85	103.007	94.3134	202.679
3.8525	103.018	94.3205	202.662
3.855	103.028	94.3277	202.644
3.8575	103.038	94.3348	202.627
3.86	103.049	94.342	202.609
3.8625	103.059	94.3492	202.592
3.865	103.069	94.3564	202.575
3.8675	103.079	94.3637	202.557
3.87	103.089	94.3709	202.54
3.8725	103.099	94.3782	202.523
3.875	103.109	94.3856	202.506
3.8775	103.119	94.3929	202.488
3.88	103.128	94.4003	202.471
3.8825	103.138	94.4077	202.454
3.885	103.148	94.4151	202.437
3.8875	103.157	94.4225	202.42
3.89	103.167	94.43	202.403
3.8925	103.176	94.4375	202.386
3.895	103.185	94.445	202.37
3.8975	103.195	94.4525	202.353
3.9	103.204	94.4601	202.336
3.9025	103.213	94.4677	202.319
3.905	103.222	94.4753	202.302
3.9075	103.231	94.4829	202.286
3.91	103.24	94.4905	202.269
3.9125	103.249	94.4982	202.253
3.915	103.258	94.5059	202.236
3.9175	103.267	94.5136	202.22
3.92	103.276	94.5213	202.203
3.9225	103.284	94.5291	202.187
3.925	103.293	94.5369	202.17
3.9275	103.301	94.5446	202.154
3.93	103.31	94.5525	202.138
3.9325	103.318	94.5603	202.121
3.935	103.327	94.5681	202.105
3.9375	103.335	94.576	202.089
3.94	103.343	94.5839	202.073
3.9425	103.352	94.5918	202.057
3.945	103.36	94.5998	202.041
3.9475	103.368	94.6077	202.025
3.95	103.376	94.6157	202.009
3.9525	103.384	94.6237	201.993
3.955	103.392	94.6317	201.977
3.9575	103.399	94.6397	201.961
3.96	103.407	94.6478	201.945
3.9625	103.415	94.6559	201.929
3.965	103.423	94.664	201.913
3.9675	103.43	94.6721	201.898
3.97	103.438	94.6802	201.882
3.9725	103.445	94.6883	201.866
3.975	103.453	94.6965	201.851
3.9775	103.46	94.7047	201.835
3.98	103.467	94.7129	201.82
3.9825	103.475	94.7211	201.804
3.985	103.482	94.7293	201.789
3.9875	103.489	94.7376	201.773
3.99	103.496	94.7459	201.758
3.9925	103.503	94.7542	201.743
3.995	103.51	94.7625	201.727
3.9975	103.517	94.7708	201.712
4	103.524	94.7791	201.697
4.0025	103.531	94.7875	201.682
4.005	103.537	94.7959	201.667
4.0075	103.544	94.8043	201.652
4.01	103.551	94.8127	201.637
4.0125	103.557	94.8211	201.622
4.015	103.564	94.8295	201.607
4.0175	103.57	94.838	201.592
4.02	103.577	94.8465	201.577
4.0225	103.583	94.855	201.562
4.025	103.589	94.8635	201.547
4.0275	103.595	94.872	201.533
4.03	103.602	94.8805	201.518
4.0325	103.608	94.8891	201.503
4.035	103.614	94.8976	201.489
4.0375	103.62	94.9062	201.474
4.04	103.626	94.9148	201.459
4.0425	103.632	94.9234	201.445
4.045	103.638	94.932	201.43
4.0475	103.643	94.9407	201.416
4.05	103.649	94.9493	201.402
4.0525	103.655	94.958	201.387
4.055	103.66	94.9667	201.373
4.0575	103.666	94.9754	201.359
4.06	103.672	94.9841	201.344
4.0625	103.677	94.9928	201.33
4.065	103.682	95.0016	201.316
4.0675	103.688	95.0103	201.302
4.07	103.693	95.0191	201.288
4.0725	103.698	95.0279	201.274
4.075	103.704	95.0367	201.26
4.0775	103.709	95.0455	201.246
4.08	103.714	95.0543	201.232
4.0825	103.719	95.0631	201.218
4.085	103.724	95.072	201.204
4.0875	103.729	95.0808	201.19
4.09	103.734	95.0897	201.177
4.0925	103.739	95.0986	201.163
4.095	103.743	95.1075	201.149
4.0975	103.748	95.1164	201.135
4.1	103.753	95.1253	201.122
4.1025	103.757	95.1342	201.108
4.105	103.762	95.1432	201.095
4.1075	103.767	95.1521	201.081
4.11	103.771	95.1611	201.068
4.1125	103.776	95.1701	201.054
4.115	103.78	95.179	201.041
4.1175	103.784	95.188	201.028
4.12	103.789	95.1971	201.014
4.1225	103.793	95.2061	201.001
4.125	103.797	95.2151	200.988
4.1275	103.801	95.2242	200.975
4.13	103.805	95.2332	200.962
4.1325	103.809	95.2423	200.949
4.135	103.813	95.2513	200.935
4.1375	103.817	95.2604	200.922
4.14	103.821	95.2695	200.909
4.1425	103.825	95.2786	200.897
4.145	103.829	95.2877	200.884
4.1475	103.832	95.2969	200.871
4.15	103.836	95.306	200.858
4.1525	103.84	95.3152	200.845
4.155	103.843	95.3243	200.832
4.1575	103.847	95.3335	200.82
4.16	103.85	95.3426	200.807
4.1625	103.854	95.3518	200.794
4.165	103.857	95.361	200.782
4.1675	103.861	95.3702	200.769
4.17	103.864	95.3794	200.757
4.1725	103.867	95.3886	200.744
4.175	103.87	95.3979	200.732
4.1775	103.873	95.4071	200.719
4.18	103.877	95.4163	200.707
4.1825	103.88	95.4256	200.695
4.185	103.883	95.4349	200.682
4.1875	103.886	95.4441	200.67
4.19	103.889	95.4534	200.658
4.1925	103.892	95.4627	200.646
4.195	103.894	95.472	200.634
4.1975	103.897	95.4813	200.622
4.2	103.9	95.4906	200.61
4.2025	103.903	95.4999	200.598
4.205	103.905	95.5092	200.586
4.2075	103.908	95.5185	200.574
4.21	103.91	95.5279	200.562
4.2125	103.913	95.5372	200.55
4.215	103.915	95.5466	200.538
4.2175	103.918	95.5559	200.526
4.22	103.92	95.5653	200.514
4.2225	103.923	95.5747	200.503
4.225	103.925	95.584	200.491
4.2275	103.927	95.5934	200.479
4.23	103.929	95.6028	200.468
4.2325	103.932	95.6122	200.456
4.235	103.934	95.6216	200.445
4.2375	103.936	95.631	200.433
4.24	103.938	95.6404	200.422
4.2425	103.94	95.6498	200.41
4.245	103.942	95.6593	200.399
4.2475	103.944	95.6687	200.388
4.25	103.945	95.6781	200.376
4.2525	103.947	95.6876	200.365
4.255	103.949	95.697	200.354
4.2575	103.951	95.7065	200.343
4.26	103.952	95.7159	200.332
4.2625	103.954	95.7254	200.321
4.265	103.956	95.7348	200.309
4.2675	103.957	95.7443	200.298
4.27	103.959	95.7538	200.287
4.2725	103.96	95.7633	200.276
4.275	103.962	95.7728	200.266
4.2775	103.963	95.7822	200.255
4.28	103.964	95.7917	200.244
4.2825	103.966	95.8012	200.233
4.285	103.967	95.8107	200.222
4.2875	103.968	95.8202	200.212
4.29	103.969	95.8297	200.201
4.2925	103.971	95.8392	200.19
4.295	103.972	95.8488	200.18
4.2975	103.973	95.8583	200.169
4.3	103.974	95.8678	200.158
4.3025	103.975	95.8773	200.148
4.305	103.976	95.8869	200.137
4.3075	103.977	95.8964	200.127
4.31	103.977	95.9059	200.117
4.3125	103.978	95.9155	200.106
4.315	103.979	95.925	200.096
4.3175	103.98	95.9345	200.086
4.32	103.981	95.9441	200.075
4.3225	103.981	95.9536	200.065
4.325	103.982	95.9632	200.055
4.3275	103.982	95.9728	200.045
4.33	103.983	95.9823	200.035
4.3325	103.983	95.9919	200.025
4.335	103.984	96.0014	200.015
4.3375	103.984	96.011	200.005
4.34	103.985	96.0206	199.995
4.3425	103.985	96.0301	199.985
4.345	103.985	96.0397	199.975
4.3475	103.986	96.0493	199.965
4.35	103.986	96.0588	199.955
4.3525	103.986	96.0684	199.945
4.355	103.986	96.078	199.936
4.3575	103.986	96.0876	199.926
4.36	103.987	96.0971	199.916
4.3625	103.987	96.1067	199.907
4.365	103.987	96.1163	199.897
4.3675	103.987	96.1259	199.888
4.37	103.987	96.1354	199.878
4.3725	103.986	96.145	199.868
4.375	103.986	96.1546	199.859
4.3775	103.986	96.1642	199.85
4.38	103.986	96.1738	199.84
4.3825	103.986	96.1834	199.831
4.385	103.985	96.1929	199.822
4.3875	103.985	96.2025	199.812
4.39	103.985	96.2121	199.803
4.3925	103.984	96.2217	199.794
4.395	103.984	96.2313	199.785
4.3975	103.984	96.2409	199.776
4.4	103.983	96.2505	199.766
4.4025	103.983	96.26	199.757
4.405	103.982	96.2696	199.748
4.4075	103.981	96.2792	199.739
4.41	103.981	96.2888	199.73
4.4125	103.98	96.2984	199.721
4.415	103.979	96.308	199.713
4.4175	103.979	96.3175	199.704
4.42	103.978	96.3271	199.695
4.4225	103.977	96.3367	199.686
4.425	103.976	96.3463	199.677
4.4275	103.975	96.3558	199.669
4.43	103.975	96.3654	199.66
4.4325	103.974	96.375	199.651
4.435	103.973	96.3846	199.643
4.4375	103.972	96.3941	199.634
4.44	103.971	96.4037	199.626
4.4425	103.97	96.4133	199.617
4.445	103.969	96.4229	199.609
4.4475	103.967	96.4324	199.6
4.45	103.966	96.442	199.592
4.4525	103.965	96.4515	199.583
4.455	103.964	96.4611	199.575
4.4575	103.963	96.4707	199.567
4.46	103.961	96.4802	199.559
4.4625	103.96	96.4898	199.55
4.465	103.959	96.4993	199.542
4.4675	103.957	96.5089	199.534
4.47	103.956	96.5184	199.526
4.4725	103.954	96.528	199.518
4.475	103.953	96.5375	199.51
4.4775	103.951	96.547	199.502
4.48	103.95	96.5566	199.494
4.4825	103.948	96.5661	199.486
4.485	103.947	96.5756	199.478
4.4875	103.945	96.5852	199.47
4.49	103.943	96.5947	199.462
4.4925	103.942	96.6042	199.454
4.495	103.94	96.6137	199.446
4.4975	103.938	96.6232	199.439
4.5	103.936	96.6328	199.431
4.5025	103.935	96.6423	199.423
4.505	103.933	96.6518	199.416
4.5075	103.931	96.6613	199.408
4.51	103.929	96.6708	199.4
4.5125	103.927	96.6803	199.393
4.515	103.925	96.6897	199.385
4.5175	103.923	96.6992	199.378
4.52	103.921	96.7087	199.37
4.5225	103.919	96.7182	199.363
4.525	103.917	96.7277	199.356
4.5275	103.915	96.7371	199.348
4.53	103.913	96.7466	199.341
4.5325	103.91	96.7561	199.334
4.535	103.908	96.7655	199.326
4.5375	103.906	96.775	199.319
4.54	103.904	96.7844	199.312
4.5425	103.901	96.7939	199.305
4.545	103.899	96.8033	199.298
4.5475	103.897	96.8127	199.29
4.55	103.894	96.8222	199.283
4.5525	103.892	96.8316	199.276
4.555	103.89	96.841	199.269
4.5575	103.887	96.8504	199.262
4.56	103.885	96.8598	199.255
4.5625	103.882	96.8692	199.249
4.565	103.88	96.8786	199.242
4.5675	103.877	96.888	199.235
4.57	103.875	96.8974	199.228
4.5725	103.872	96.9068	199.221
4.575	103.869	96.9162	199.215
4.5775	103.867	96.9255	199.208
4.58	103.864	96.9349	199.201
4.5825	103.861	96.9443	199.194
4.585	103.859	96.9536	199.188
4.5875	103.856	96.963	199.181
4.59	103.853	96.9723	199.175
4.5925	103.85	96.9817	199.168
4.595	103.847	96.991	199.162
4.5975	103.844	97.0003	199.155
4.6	103.842	97.0096	199.149
4.6025	103.839	97.019	199.142
4.605	103.836	97.0283	199.136
4.6075	103.833	97.0376	199.13
4.61	103.83	97.0469	199.123
4.6125	103.827	97.0561	199.117
4.615	103.824	97.0654	199.111
4.6175	103.821	97.0747	199.105
4.62	103.818	97.084	199.099
4.6225	103.814	97.0932	199.092
4.625	103.811	97.1025	199.086
4.6275	103.808	97.1117	199.08
4.63	103.805	97.121	199.074
4.6325	103.802	97.1302	199.068
4.635	103.798	97.1394	199.062
4.6375	103.795	97.1487	199.056
4.64	103.792	97.1579	199.05
4.6425	103.789	97.1671	199.044
4.645	103.785	97.1763	199.038
4.6475	103.782	97.1855	199.033
4.65	103.779	97.1947	199.027
4.6525	103.775	97.2038	199.021
4.655	103.772	97.213	199.015
4.6575	103.768	97.2222	199.01
4.66	103.765	97.2313	199.004
4.6625	103.761	97.2405	198.998
4.665	103.758	97.2496	198.993
4.6675	103.754	97.2587	198.987
4.67	103.751	97.2679	198.981
4.6725	103.747	97.277	198.976
4.675	103.744	97.2861	198.97
4.6775	103.74	97.2952	198.965
4.68	103.736	97.3043	198.959
4.6825	103.733	97.3134	198.954
4.685	103.729	97.3225	198.949
4.6875	103.725	97.3315	198.943
4.69	103.722	97.3406	198.938
4.6925	103.718	97.3496	198.933
4.695	103.714	97.3587	198.927
4.6975	103.71	97.3677	198.922
4.7	103.706	97.3767	198.917
4.7025	103.703	97.3858	198.912
4.705	103.699	97.3948	198.906
4.7075	103.695	97.4038	198.901
4.71	103.691	97.4128	198.896
4.7125	103.687	97.4218	198.891
4.715	103.683	97.4307	198.886
4.7175	103.679	97.4397	198.881
4.72	103.675	97.4487	198.876
4.7225	103.671	97.4576	198.871
4.725	103.667	97.4665	198.866
4.7275	103.663	97.4755	198.861
4.73	103.659	97.4844	198.856
4.7325	103.655	97.4933	198.852
4.735	103.651	97.5022	198.847
4.7375	103.647	97.5111	198.842
4.74	103.643	97.52	198.837
4.7425	103.639	97.5289	198.832
4.745	103.634	97.5377	198.828
4.7475	103.63	97.5466	198.823
4.75	103.626	97.5554	198.818
4.7525	103.622	97.5643	198.814
4.755	103.618	97.5731	198.809
4.7575	103.613	97.5819	198.805
4.76	103.609	97.5907	198.8
4.7625	103.605	97.5995	198.796
4.765	103.601	97.6083	198.791
4.7675	103.596	97.6171	198.787
4.77	103.592	97.6259	198.782
4.7725	103.587	97.6346	198.778
4.775	103.583	97.6434	198.773
4.7775	103.579	97.6521	198.769
4.78	103.574	97.6609	198.765
4.7825	103.57	97.6696	198.761
4.785	103.565	97.6783	198.756
4.7875	103.561	97.687	198.752
4.79	103.556	97.6957	198.748
4.7925	103.552	97.7044	198.744
4.795	103.547	97.713	198.74
4.7975	103.543	97.7217	198.735
4.8	103.538	97.7304	198.731
4.8025	103.534	97.739	198.727
4.805	103.529	97.7476	198.723
4.8075	103.525	97.7562	198.719
4.81	103.52	97.7649	198.715
4.8125	103.515	97.7735	198.711
4.815	103.511	97.782	198.707
4.8175	103.506	97.7906	198.703
4.82	103.501	97.7992	198.699
4.8225	103.497	97.8077	198.696
4.825	103.492	97.8163	198.692
4.8275	103.487	97.8248	198.688
4.83	103.483	97.8333	198.684
4.8325	103.478	97.8419	198.68
4.835	103.473	97.8504	198.677
4.8375	103.468	97.8588	198.673
4.84	103.463	97.8673	198.669
4.8425	103.459	97.8758	198.666
4.845	103.454	97.8843	198.662
4.8475	103.449	97.8927	198.658
4.85	103.444	97.9011	198.655
4.8525	103.439	97.9096	198.651
4.855	103.434	97.918	198.648
4.8575	103.429	97.9264	198.644
4.86	103.425	97.9348	198.641
4.8625	103.42	97.9431	198.637
4.865	103.415	97.9515	198.634
4.8675	103.41	97.9599	198.63
4.87	103.405	97.9682	198.627
4.8725	103.4	97.9765	198.624
4.875	103.395	97.9849	198.62
4.8775	103.39	97.9932	198.617
4.88	103.385	98.0015	198.614
4.8825	103.38	98.0098	198.611
4.885	103.375	98.018	198.607
4.8875	103.37	98.0263	198.604
4.89	103.364	98.0346	198.601
4.8925	103.359	98.0428	198.598
4.895	103.354	98.051	198.595
4.8975	103.349	98.0592	198.592
4.9	103.344	98.0674	198.588
4.9025	103.339	98.0756	198.585
4.905	103.334	98.0838	198.582
4.9075	103.329	98.092	198.579
4.91	103.323	98.1001	198.576
4.9125	103.318	98.1083	198.573
4.915	103.313	98.1164	198.571
4.9175	103.308	98.1245	198.568
4.92	103.303	98.1326	198.565
4.9225	103.297	98.1407	198.562
4.925	103.292	98.1488	198.559
4.9275	103.287	98.1569	198.556
4.93	103.282	98.165	198.553
4.9325	103.276	98.173	198.551
4.935	103.271	98.181	198.548
4.9375	103.266	98.1891	198.545
4.94	103.26	98.1971	198.542
4.9425	103.255	98.2051	198.54
4.945	103.25	98.2131	198.537
4.9475	103.244	98.221	198.535
4.95	103.239	98.229	198.532
4.9525	103.234	98.2369	198.529
4.955	103.228	98.2449	198.527
4.9575	103.223	98.2528	198.524
4.96	103.218	98.2607	198.522
4.9625	103.212	98.2686	198.519
4.965	103.207	98.2765	198.517
4.9675	103.201	98.2844	198.514
4.97	103.196	98.2922	198.512
4.9725	103.19	98.3001	198.51
4.975	103.185	98.3079	198.507
4.9775	103.179	98.3157	198.505
4.98	103.174	98.3235	198.502
4.9825	103.169	98.3313	198.5
4.985	103.163	98.3391	198.498
4.9875	103.158	98.3469	198.496
4.99	103.152	98.3546	198.493
4.9925	103.146	98.3624	198.491
4.995	103.141	98.3701	198.489
4.9975	103.135	98.3778	198.487
5	103.13	98.3855	198.485
5.0025	103.124	98.3932	198.482
5.005	103.119	98.4009	198.48
5.0075	103.113	98.4086	198.478
5.01	103.108	98.4162	198.476
5.0125	103.102	98.4239	198.474
5.015	103.096	98.4315	198.472
5.0175	103.091	98.4391	198.47
5.02	103.085	98.4467	198.468
5.0225	103.079	98.4543	198.466
5.025	103.074	98.4619	198.464
5.0275	103.068	98.4694	198.462
5.03	103.063	98.477	198.46
5.0325	103.057	98.4845	198.459
5.035	103.051	98.492	198.457
5.0375	103.046	98.4995	198.455
5.04	103.04	98.507	198.453
5.0425	103.034	98.5145	198.451
5.045	103.028	98.522	198.45
5.0475	103.023	98.5294	198.448
5.05	103.017	98.5369	198.446
5.0525	103.011	98.5443	198.444
5.055	103.006	98.5517	198.443
5.0575	103	98.5591	198.441
5.06	102.994	98.5665	198.439
5.0625	102.988	98.5738	198.438
5.065	102.983	98.5812	198.436
5.0675	102.977	98.5885	198.435
5.07	102.971	98.5959	198.433
5.0725	102.965	98.6032	198.431
5.075	102.96	98.6105	198.43
5.0775	102.954	98.6178	198.428
5.08	102.948	98.6251	198.427
5.0825	102.942	98.6323	198.426
5.085	102.936	98.6396	198.424
5.0875	102.931	98.6468	198.423
5.09	102.925	98.654	198.421
5.0925	102.919	98.6612	198.42
5.095	102.913	98.6684	198.419
5.0975	102.907	98.6756	198.417
5.1	102.901	98.6828	198.416
5.1025	102.896	98.6899	198.415
5.105	102.89	98.6971	198.413
5.1075	102.884	98.7042	198.412
5.11	102.878	98.7113	198.411
5.1125	102.872	98.7184	198.41
5.115	102.866	98.7255	198.408
5.1175	102.86	98.7325	198.407
5.12	102.854	98.7396	198.406
5.1225	102.849	98.7466	198.405
5.125	102.843	98.7537	198.404
5.1275	102.837	98.7607	198.403
5.13	102.831	98.7677	198.401
5.1325	102.825	98.7746	198.4
5.135	102.819	98.7816	198.399
5.1375	102.813	98.7886	198.398
5.14	102.807	98.7955	198.397
5.1425	102.801	98.8024	198.396
5.145	102.795	98.8093	198.395
5.1475	102.789	98.8162	198.394
5.15	102.783	98.8231	198.393
5.1525	102.778	98.83	198.392
5.155	102.772	98.8369	198.392
5.1575	102.766	98.8437	198.391
5.16	102.76	98.8505	198.39
5.1625	102.754	98.8573	198.389
5.165	102.748	98.8641	198.388
5.1675	102.742	98.8709	198.387
5.17	102.736	98.8777	198.387
5.1725	102.73	98.8844	198.386
5.175	102.724	98.8912	198.385
5.1775	102.718	98.8979	198.384
5.18	102.712	98.9046	198.384
5.1825	102.706	98.9113	198.383
5.185	102.7	98.918	198.382
5.1875	102.694	98.9247	198.381
5.19	102.688	98.9313	198.381
5.1925	102.682	98.938	198.38
5.195	102.676	98.9446	198.38
5.1975	102.67	98.9512	198.379
5.2	102.664	98.9578	198.378
5.2025	102.658	98.9644	198.378
5.205	102.652	98.971	198.377
5.2075	102.646	98.9775	198.377
5.21	102.64	98.984	198.376
5.2125	102.634	98.9906	198.376
5.215	102.628	98.9971	198.375
5.2175	102.622	99.0036	198.375
5.22	102.616	99.0101	198.374
5.2225	102.61	99.0165	198.374
5.225	102.604	99.023	198.373
5.2275	102.598	99.0294	198.373
5.23	102.592	99.0358	198.373
5.2325	102.585	99.0423	198.372
5.235	102.579	99.0486	198.372
5.2375	102.573	99.055	198.372
5.24	102.567	99.0614	198.371
5.2425	102.561	99.0677	198.371
5.245	102.555	99.0741	198.371
5.2475	102.549	99.0804	198.37
5.25	102.543	99.0867	198.37
5.2525	102.537	99.093	198.37
5.255	102.531	99.0993	198.37
5.2575	102.525	99.1055	198.369
5.26	102.519	99.1118	198.369
5.2625	102.513	99.118	198.369
5.265	102.507	99.1242	198.369
5.2675	102.501	99.1305	198.369
5.27	102.495	99.1366	198.369
5.2725	102.489	99.1428	198.369
5.275	102.483	99.149	198.368
5.2775	102.476	99.1551	198.368
5.28	102.47	99.1613	198.368
5.2825	102.464	99.1674	198.368
5.285	102.458	99.1735	198.368
5.2875	102.452	99.1796	198.368
5.29	102.446	99.1856	198.368
5.2925	102.44	99.1917	198.368
5.295	102.434	99.1977	198.368
5.2975	102.428	99.2038	198.368
5.3	102.422	99.2098	198.368
5.3025	102.416	99.2158	198.368
5.305	102.41	99.2218	198.369
5.3075	102.404	99.2277	198.369
5.31	102.398	99.2337	198.369
5.3125	102.392	99.2396	198.369
5.315	102.385	99.2456	198.369
5.3175	102.379	99.2515	198.369
5.32	102.373	99.2574	198.369
5.3225	102.367	99.2632	198.37
5.325	102.361	99.2691	198.37
5.3275	102.355	99.275	198.37
5.33	102.349	99.2808	198.37
5.3325	102.343	99.2866	198.37
5.335	102.337	99.2924	198.371
5.3375	102.331	99.2982	198.371
5.34	102.325	99.304	198.371
5.3425	102.319	99.3098	198.372
5.345	102.313	99.3155	198.372
5.3475	102.307	99.3213	198.372
5.35	102.3	99.327	198.373
5.3525	102.294	99.3327	198.373
5.355	102.288	99.3384	198.373
5.3575	102.282	99.344	198.374
5.36	102.276	99.3497	198.374
5.3625	102.27	99.3554	198.374
5.365	102.264	99.361	198.375
5.3675	102.258	99.3666	198.375
5.37	102.252	99.3722	198.376
5.3725	102.246	99.3778	198.376
5.375	102.24	99.3834	198.377
5.3775	102.234	99.3889	198.377
5.38	102.228	99.3945	198.378
5.3825	102.222	99.4	198.378
5.385	102.216	99.4055	198.379
5.3875	102.21	99.411	198.379
5.39	102.204	99.4165	198.38
5.3925	102.198	99.422	198.38
5.395	102.192	99.4274	198.381
5.3975	102.185	99.4329	198.382
5.4	102.179	99.4383	198.382
5.4025	102.173	99.4437	198.383
5.405	102.167	99.4491	198.384
5.4075	102.161	99.4545	198.384
5.41	102.155	99.4598	198.385
5.4125	102.149	99.4652	198.386
5.415	102.143	99.4705	198.386
5.4175	102.137	99.4758	198.387
5.42	102.131	99.4812	198.388
5.4225	102.125	99.4864	198.388
5.425	102.119	99.4917	198.389
5.4275	102.113	99.497	198.39
5.43	102.107	99.5022	198.391
5.4325	102.101	99.5075	198.391
5.435	102.095	99.5127	198.392
5.4375	102.089	99.5179	198.393
5.44	102.083	99.5231	198.394
5.4425	102.077	99.5283	198.395
5.445	102.071	99.5334	198.395
5.4475	102.065	99.5386	198.396
5.45	102.059	99.5437	198.397
5.4525	102.053	99.5488	198.398
5.455	102.047	99.5539	198.399
5.4575	102.041	99.559	198.4
5.46	102.035	99.5641	198.401
5.4625	102.029	99.5691	198.402
5.465	102.023	99.5742	198.403
5.4675	102.017	99.5792	198.403
5.47	102.011	99.5842	198.404
5.4725	102.005	99.5892	198.405
5.475	101.999	99.5942	198.406
5.4775	101.994	99.5992	198.407
5.48	101.988	99.6041	198.408
5.4825	101.982	99.6091	198.409
5.485	101.976	99.614	198.41
5.4875	101.97	99.6189	198.411
5.49	101.964	99.6238	198.412
5.4925	101.958	99.6287	198.413
5.495	101.952	99.6336	198.415
5.4975	101.946	99.6384	198.416
5.5	101.94	99.6433	198.417
5.5025	101.934	99.6481	198.418
5.505	101.928	99.6529	198.419
5.5075	101.922	99.6577	198.42
5.51	101.916	99.6625	198.421
5.5125	101.911	99.6673	198.422
5.515	101.905	99.672	198.423
5.5175	101.899	99.6767	198.425
5.52	101.893	99.6815	198.426
5.5225	101.887	99.6862	198.427
5.525	101.881	99.6909	198.428
5.5275	101.875	99.6956	198.429
5.53	101.869	99.7002	198.43
5.5325	101.863	99.7049	198.432
5.535	101.858	99.7095	198.433
5.5375	101.852	99.7141	198.434
5.54	101.846	99.7187	198.435
5.5425	101.84	99.7233	198.437
5.545	101.834	99.7279	198.438
5.5475	101.828	99.7325	198.439
5.55	101.822	99.737	198.44
5.5525	101.817	99.7416	198.442
5.555	101.811	99.7461	198.443
5.5575	101.805	99.7506	198.444
5.56	101.799	99.7551	198.446
5.5625	101.793	99.7596	198.447
5.565	101.788	99.764	198.448
5.5675	101.782	99.7685	198.45
5.57	101.776	99.7729	198.451
5.5725	101.77	99.7774	198.452
5.575	101.764	99.7818	198.454
5.5775	101.759	99.7862	198.455
5.58	101.753	99.7905	198.457
5.5825	101.747	99.7949	198.458
5.585	101.741	99.7993	198.46
5.5875	101.735	99.8036	198.461
5.59	101.73	99.8079	198.462
5.5925	101.724	99.8122	198.464
5.595	101.718	99.8165	198.465
5.5975	101.712	99.8208	198.467
5.6	101.707	99.8251	198.468
5.6025	101.701	99.8293	198.47
5.605	101.695	99.8336	198.471
5.6075	101.69	99.8378	198.473
5.61	101.684	99.842	198.474
5.6125	101.678	99.8462	198.476
5.615	101.672	99.8504	198.477
5.6175	101.667	99.8545	198.479
5.62	101.661	99.8587	198.48
5.6225	101.655	99.8628	198.482
5.625	101.65	99.867	198.483
5.6275	101.644	99.8711	198.485
5.63	101.638	99.8752	198.487
5.6325	101.633	99.8792	198.488
5.635	101.627	99.8833	198.49
5.6375	101.621	99.8874	198.491
5.64	101.616	99.8914	198.493
5.6425	101.61	99.8954	198.495
5.645	101.604	99.8995	198.496
5.6475	101.599	99.9035	198.498
5.65	101.593	99.9074	198.499
5.6525	101.587	99.9114	198.501
5.655	101.582	99.9154	198.503
5.6575	101.576	99.9193	198.504
5.66	101.571	99.9232	198.506
5.6625	101.565	99.9272	198.508
5.665	101.559	99.9311	198.509
5.6675	101.554	99.935	198.511
5.67	101.548	99.9388	198.513
5.6725	101.543	99.9427	198.515
5.675	101.537	99.9465	198.516
5.6775	101.532	99.9504	198.518
5.68	101.526	99.9542	198.52
5.6825	101.521	99.958	198.521
5.685	101.515	99.9618	198.523
5.6875	101.509	99.9656	198.525
5.69	101.504	99.9693	198.527
5.6925	101.498	99.9731	198.529
5.695	101.493	99.9768	198.53
5.6975	101.487	99.9806	198.532
5.7	101.482	99.9843	198.534
5.7025	101.476	99.988	198.536
5.705	101.471	99.9916	198.537
5.7075	101.465	99.9953	198.539
5.71	101.46	99.999	198.541
5.7125	101.454	100.003	198.543
5.715	101.449	100.006	198.545
5.7175	101.444	100.01	198.547
5.72	101.438	100.013	198.548
5.7225	101.433	100.017	198.55
5.725	101.427	100.021	198.552
5.7275	101.422	100.024	198.554
5.73	101.416	100.028	198.556
5.7325	101.411	100.031	198.558
5.735	101.406	100.035	198.56
5.7375	101.4	100.038	198.562
5.74	101.395	100.042	198.563
5.7425	101.389	100.045	198.565
5.745	101.384	100.049	198.567
5.7475	101.379	100.052	198.569
5.75	101.373	100.056	198.571
5.7525	101.368	100.059	198.573
5.755	101.363	100.062	198.575
5.7575	101.357	100.066	198.577
5.76	101.352	100.069	198.579
5.7625	101.347	100.073	198.581
5.765	101.341	100.076	198.583
5.7675	101.336	100.079	198.585
5.77	101.331	100.083	198.587
5.7725	101.325	100.086	198.589
5.775	101.32	100.089	198.591
5.7775	101.315	100.093	198.593
5.78	101.309	100.096	198.595
5.7825	101.304	100.099	198.597
5.785	101.299	100.102	198.599
5.7875	101.294	100.106	198.601
5.79	101.288	100.109	198.603
5.7925	101.283	100.112	198.605
5.795	101.278	100.115	198.607
5.7975	101.273	100.119	198.609
5.8	101.268	100.122	198.611
5.8025	101.262	100.125	198.613
5.805	101.257	100.128	198.615
5.8075	101.252	100.131	198.617
5.81	101.247	100.134	198.619
5.8125	101.242	100.137	198.621
5.815	101.236	100.141	198.623
5.8175	101.231	100.144	198.625
5.82	101.226	100.147	198.627
5.8225	101.221	100.15	198.629
5.825	101.216	100.153	198.631
5.8275	101.211	100.156	198.634
5.83	101.206	100.159	198.636
5.8325	101.2	100.162	198.638
5.835	101.195	100.165	198.64
5.8375	101.19	100.168	198.642
5.84	101.185	100.171	198.644
5.8425	101.18	100.174	198.646
5.845	101.175	100.177	198.648
5.8475	101.17	100.18	198.65
5.85	101.165	100.183	198.653
5.8525	101.16	100.186	198.655
5.855	101.155	100.188	198.657
5.8575	101.15	100.191	198.659
5.86	101.145	100.194	198.661
5.8625	101.14	100.197	198.663
5.865	101.135	100.2	198.666
5.8675	101.13	100.203	198.668
5.87	101.125	100.206	198.67
5.8725	101.12	100.208	198.672
5.875	101.115	100.211	198.674
5.8775	101.11	100.214	198.676
5.88	101.105	100.217	198.679
5.8825	101.1	100.219	198.681
5.885	101.095	100.222	198.683
5.8875	101.09	100.225	198.685
5.89	101.085	100.228	198.687
5.8925	101.08	100.23	198.69
5.895	101.075	100.233	198.692
5.8975	101.07	100.236	198.694
5.9	101.065	100.238	198.696
5.9025	101.06	100.241	198.699
5.905	101.055	100.244	198.701
5.9075	101.051	100.246	198.703
5.91	101.046	100.249	198.705
5.9125	101.041	100.252	198.707
5.915	101.036	100.254	198.71
5.9175	101.031	100.257	198.712
5.92	101.026	100.259	198.714
5.9225	101.022	100.262	198.716
5.925	101.017	100.265	198.719
5.9275	101.012	100.267	198.721
5.93	101.007	100.27	198.723
5.9325	101.002	100.272	198.726
5.935	100.998	100.275	198.728
5.9375	100.993	100.277	198.73
5.94	100.988	100.28	198.732
5.9425	100.983	100.282	198.735
5.945	100.979	100.285	198.737
5.9475	100.974	100.287	198.739
5.95	100.969	100.289	198.742
5.9525	100.964	100.292	198.744
5.955	100.96	100.294	198.746
5.9575	100.955	100.297	198.748
5.96	100.95	100.299	198.751
5.9625	100.946	100.301	198.753
5.965	100.941	100.304	198.755
5.9675	100.936	100.306	198.758
5.97	100.931	100.308	198.76
5.9725	100.927	100.311	198.762
5.975	100.922	100.313	198.765
5.9775	100.918	100.315	198.767
5.98	100.913	100.318	198.769
5.9825	100.908	100.32	198.772
5.985	100.904	100.322	198.774
5.9875	100.899	100.325	198.776
5.99	100.895	100.327	198.779
5.9925	100.89	100.329	198.781
5.995	100.885	100.331	198.783
5.9975	100.881	100.333	198.786
6	100.876	100.336	198.788
6.0025	100.872	100.338	198.79
6.005	100.867	100.34	198.793
6.0075	100.863	100.342	198.795
6.01	100.858	100.344	198.798
6.0125	100.854	100.347	198.8
6.015	100.849	100.349	198.802
6.0175	100.845	100.351	198.805
6.02	100.84	100.353	198.807
6.0225	100.836	100.355	198.809
6.025	100.831	100.357	198.812
6.0275	100.827	100.359	198.814
6.03	100.822	100.361	198.816
6.0325	100.818	100.363	198.819
6.035	100.813	100.365	198.821
6.0375	100.809	100.367	198.824
6.04	100.805	100.369	198.826
6.0425	100.8	100.371	198.828
6.045	100.796	100.373	198.831
6.0475	100.791	100.375	198.833
6.05	100.787	100.377	198.836
6.0525	100.783	100.379	198.838
6.055	100.778	100.381	198.84
6.0575	100.774	100.383	198.843
6.06	100.77	100.385	198.845
6.0625	100.765	100.387	198.848
6.065	100.761	100.389	198.85
6.0675	100.757	100.391	198.852
6.07	100.752	100.393	198.855
6.0725	100.748	100.395	198.857
6.075	100.744	100.397	198.86
6.0775	100.739	100.398	198.862
6.08	100.735	100.4	198.865
6.0825	100.731	100.402	198.867
6.085	100.727	100.404	198.869
6.0875	100.722	100.406	198.872
6.09	100.718	100.408	198.874
6.0925	100.714	100.409	198.877
6.095	100.71	100.411	198.879
6.0975	100.706	100.413	198.882
6.1	100.701	100.415	198.884
6.1025	100.697	100.417	198.886
6.105	100.693	100.418	198.889
6.1075	100.689	100.42	198.891
6.11	100.685	100.422	198.894
6.1125	100.68	100.423	198.896
6.115	100.676	100.425	198.899
6.1175	100.672	100.427	198.901
6.12	100.668	100.428	198.903
6.1225	100.664	100.43	198.906
6.125	100.66	100.432	198.908
6.1275	100.656	100.433	198.911
6.13	100.652	100.435	198.913
6.1325	100.648	100.437	198.916
6.135	100.644	100.438	198.918
6.1375	100.639	100.44	198.921
6.14	100.635	100.442	198.923
6.1425	100.631	100.443	198.925
6.145	100.627	100.445	198.928
6.1475	100.623	100.446	198.93
6.15	100.619	100.448	198.933
6.1525	100.615	100.449	198.935
6.155	100.611	100.451	198.938
6.1575	100.607	100.453	198.94
6.16	100.603	100.454	198.943
6.1625	100.599	100.456	198.945
6.165	100.595	100.457	198.948
6.1675	100.591	100.459	198.95
6.17	100.588	100.46	198.952
6.1725	100.584	100.461	198.955
6.175	100.58	100.463	198.957
6.1775	100.576	100.464	198.96
6.18	100.572	100.466	198.962
6.1825	100.568	100.467	198.965
6.185	100.564	100.469	198.967
6.1875	100.56	100.47	198.97
6.19	100.556	100.471	198.972
6.1925	100.552	100.473	198.975
6.195	100.549	100.474	198.977
6.1975	100.545	100.476	198.98
6.2	100.541	100.477	198.982
6.2025	100.537	100.478	198.984
6.205	100.533	100.48	198.987
6.2075	100.53	100.481	198.989
6.21	100.526	100.482	198.992
6.2125	100.522	100.484	198.994
6.215	100.518	100.485	198.997
6.2175	100.514	100.486	198.999
6.22	100.511	100.488	199.002
6.2225	100.507	100.489	199.004
6.225	100.503	100.49	199.007
6.2275	100.499	100.491	199.009
6.23	100.496	100.493	199.012
6.2325	100.492	100.494	199.014
6.235	100.488	100.495	199.017
6.2375	100.485	100.496	199.019
6.24	100.481	100.498	199.021
6.2425	100.477	100.499	199.024
6.245	100.474	100.5	199.026
6.2475	100.47	100.501	199.029
6.25	100.466	100.502	199.031
6.2525	100.463	100.503	199.034
6.255	100.459	100.505	199.036
6.2575	100.455	100.506	199.039
6.26	100.452	100.507	199.041
6.2625	100.448	100.508	199.044
6.265	100.445	100.509	199.046
6.2675	100.441	100.51	199.049
6.27	100.438	100.511	199.051
6.2725	100.434	100.512	199.054
6.275	100.43	100.514	199.056
6.2775	100.427	100.515	199.058
6.28	100.423	100.516	199.061
6.2825	100.42	100.517	199.063
6.285	100.416	100.518	199.066
6.2875	100.413	100.519	199.068
6.29	100.409	100.52	199.071
6.2925	100.406	100.521	199.073
6.295	100.402	100.522	199.076
6.2975	100.399	100.523	199.078
6.3	100.395	100.524	199.081
6.3025	100.392	100.525	199.083
6.305	100.389	100.526	199.086
6.3075	100.385	100.527	199.088
6.31	100.382	100.528	199.09
6.3125	100.378	100.529	199.093
6.315	100.375	100.53	199.095
6.3175	100.371	100.531	199.098
6.32	100.368	100.532	199.1
6.3225	100.365	100.533	199.103
6.325	100.361	100.533	199.105
6.3275	100.358	100.534	199.108
6.33	100.355	100.535	199.11
6.3325	100.351	100.536	199.113
6.335	100.348	100.537	199.115
6.3375	100.345	100.538	199.117
6.34	100.341	100.539	199.12
6.3425	100.338	100.54	199.122
6.345	100.335	100.54	199.125
6.3475	100.331	100.541	199.127
6.35	100.328	100.542	199.13
6.3525	100.325	100.543	199.132
6.355	100.322	100.544	199.135
6.3575	100.318	100.545	199.137
6.36	100.315	100.545	199.139
6.3625	100.312	100.546	199.142
6.365	100.309	100.547	199.144
6.3675	100.306	100.548	199.147
6.37	100.302	100.548	199.149
6.3725	100.299	100.549	199.152
6.375	100.296	100.55	199.154
6.3775	100.293	100.551	199.156
6.38	100.29	100.551	199.159
6.3825	100.287	100.552	199.161
6.385	100.283	100.553	199.164
6.3875	100.28	100.554	199.166
6.39	100.277	100.554	199.169
6.3925	100.274	100.555	199.171
6.395	100.271	100.556	199.173
6.3975	100.268	100.556	199.176
6.4	100.265	100.557	199.178
6.4025	100.262	100.558	199.181
6.405	100.259	100.558	199.183
6.4075	100.255	100.559	199.186
6.41	100.252	100.56	199.188
6.4125	100.249	100.56	199.19
6.415	100.246	100.561	199.193
6.4175	100.243	100.561	199.195
6.42	100.24	100.562	199.198
6.4225	100.237	100.563	199.2
6.425	100.234	100.563	199.202
6.4275	100.231	100.564	199.205
6.43	100.228	100.564	199.207
6.4325	100.225	100.565	199.21
6.435	100.222	100.566	199.212
6.4375	100.219	100.566	199.214
6.44	100.216	100.567	199.217
6.4425	100.214	100.567	199.219
6.445	100.211	100.568	199.222
6.4475	100.208	100.568	199.224
6.45	100.205	100.569	199.226
6.4525	100.202	100.569	199.229
6.455	100.199	100.57	199.231
6.4575	100.196	100.57	199.234
6.46	100.193	100.571	199.236
6.4625	100.19	100.571	199.238
6.465	100.188	100.572	199.241
6.4675	100.185	100.572	199.243
6.47	100.182	100.573	199.245
6.4725	100.179	100.573	199.248
6.475	100.176	100.574	199.25
6.4775	100.173	100.574	199.253
6.48	100.171	100.574	199.255
6.4825	100.168	100.575	199.257
6.485	100.165	100.575	199.26
6.4875	100.162	100.576	199.262
6.49	100.159	100.576	199.264
6.4925	100.157	100.577	199.267
6.495	100.154	100.577	199.269
6.4975	100.151	100.577	199.271
6.5	100.149	100.578	199.274
6.5025	100.146	100.578	199.276
6.505	100.143	100.578	199.279
6.5075	100.14	100.579	199.281
6.51	100.138	100.579	199.283
6.5125	100.135	100.579	199.286
6.515	100.132	100.58	199.288
6.5175	100.13	100.58	199.29
6.52	100.127	100.58	199.293
6.5225	100.124	100.581	199.295
6.525	100.122	100.581	199.297
6.5275	100.119	100.581	199.3
6.53	100.116	100.582	199.302
6.5325	100.114	100.582	199.304
6.535	100.111	100.582	199.307
6.5375	100.109	100.583	199.309
6.54	100.106	100.583	199.311
6.5425	100.103	100.583	199.314
6.545	100.101	100.583	199.316
6.5475	100.098	100.584	199.318
6.55	100.096	100.584	199.32
6.5525	100.093	100.584	199.323
6.555	100.091	100.584	199.325
6.5575	100.088	100.584	199.327
6.56	100.086	100.585	199.33
6.5625	100.083	100.585	199.332
6.565	100.081	100.585	199.334
6.5675	100.078	100.585	199.337
6.57	100.076	100.586	199.339
6.5725	100.073	100.586	199.341
6.575	100.071	100.586	199.343
6.5775	100.068	100.586	199.346
6.58	100.066	100.586	199.348
6.5825	100.063	100.586	199.35
6.585	100.061	100.587	199.353
6.5875	100.059	100.587	199.355
6.59	100.056	100.587	199.357
6.5925	100.054	100.587	199.359
6.595	100.051	100.587	199.362
6.5975	100.049	100.587	199.364
6.6	100.047	100.587	199.366
6.6025	100.044	100.587	199.368
6.605	100.042	100.588	199.371
6.6075	100.039	100.588	199.373
6.61	100.037	100.588	199.375
6.6125	100.035	100.588	199.377
6.615	100.032	100.588	199.38
6.6175	100.03	100.588	199.382
6.62	100.028	100.588	199.384
6.6225	100.025	100.588	199.386
6.625	100.023	100.588	199.389
6.6275	100.021	100.588	199.391
6.63	100.019	100.588	199.393
6.6325	100.016	100.588	199.395
6.635	100.014	100.588	199.398
6.6375	100.012	100.588	199.4
6.64	100.01	100.588	199.402
6.6425	100.007	100.588	199.404
6.645	100.005	100.589	199.406
6.6475	100.003	100.589	199.409
6.65	100.001	100.589	199.411
6.6525	99.9984	100.589	199.413
6.655	99.9962	100.589	199.415
6.6575	99.9941	100.589	199.417
6.66	99.9919	100.588	199.42
6.6625	99.9897	100.588	199.422
6.665	99.9875	100.588	199.424
6.6675	99.9854	100.588	199.426
6.67	99.9832	100.588	199.428
6.6725	99.9811	100.588	199.431
6.675	99.979	100.588	199.433
6.6775	99.9768	100.588	199.435
6.68	99.9747	100.588	199.437
6.6825	99.9726	100.588	199.439
6.685	99.9705	100.588	199.441
6.6875	99.9684	100.588	199.444
6.69	99.9663	100.588	199.446
6.6925	99.9643	100.588	199.448
6.695	99.9622	100.588	199.45
6.6975	99.9602	100.588	199.452
6.7	99.9581	100.587	199.454
6.7025	99.9561	100.587	199.457
6.705	99.954	100.587	199.459
6.7075	99.952	100.587	199.461
6.71	99.95	100.587	199.463
6.7125	99.948	100.587	199.465
6.715	99.946	100.587	199.467
6.7175	99.944	100.587	199.469
6.72	99.942	100.586	199.472
6.7225	99.94	100.586	199.474
6.725	99.9381	100.586	199.476
6.7275	99.9361	100.586	199.478
6.73	99.9341	100.586	199.48
6.7325	99.9322	100.586	199.482
6.735	99.9303	100.586	199.484
6.7375	99.9283	100.585	199.486
6.74	99.9264	100.585	199.488
6.7425	99.9245	100.585	199.491
6.745	99.9226	100.585	199.493
6.7475	99.9207	100.585	199.495
6.75	99.9188	100.584	199.497
6.7525	99.9169	100.584	199.499
6.755	99.915	100.584	199.501
6.7575	99.9132	100.584	199.503
6.76	99.9113	100.584	199.505
6.7625	99.9095	100.583	199.507
6.765	99.9076	100.583	199.509
6.7675	99.9058	100.583	199.511
6.77	99.904	100.583	199.513
6.7725	99.9021	100.582	199.516
6.775	99.9003	100.582	199.518
6.7775	99.8985	100.582	199.52
6.78	99.8967	100.582	199.522
6.7825	99.8949	100.581	199.524
6.785	99.8932	100.581	199.526
6.7875	99.8914	100.581	199.528
6.79	99.8896	100.581	199.53
6.7925	99.8879	100.58	199.532
6.795	99.8861	100.58	199.534
6.7975	99.8844	100.58	199.536
6.8	99.8826	100.579	199.538
6.8025	99.8809	100.579	199.54
6.805	99.8792	100.579	199.542
6.8075	99.8775	100.578	199.544
6.81	99.8758	100.578	199.546
6.8125	99.8741	100.578	199.548
6.815	99.8724	100.578	199.55
6.8175	99.8707	100.577	199.552
6.82	99.869	100.577	199.554
6.8225	99.8674	100.577	199.556
6.825	99.8657	100.576	199.558
6.8275	99.8641	100.576	199.56
6.83	99.8624	100.576	199.562
6.8325	99.8608	100.575	199.564
6.835	99.8592	100.575	199.566
6.8375	99.8575	100.574	199.568
6.84	99.8559	100.574	199.57
6.8425	99.8543	100.574	199.572
6.845	99.8527	100.573	199.574
6.8475	99.8511	100.573	199.576
6.85	99.8495	100.573	199.578
6.8525	99.848	100.572	199.58
6.855	99.8464	100.572	199.582
6.8575	99.8448	100.571	199.584
6.86	99.8433	100.571	199.586
6.8625	99.8417	100.571	199.588
6.865	99.8402	100.57	199.59
6.8675	99.8386	100.57	199.591
6.87	99.8371	100.569	199.593
6.8725	99.8356	100.569	199.595
6.875	99.8341	100.569	199.597
6.8775	99.8326	100.568	199.599
6.88	99.8311	100.568	199.601
6.8825	99.8296	100.567	199.603
6.885	99.8281	100.567	199.605
6.8875	99.8266	100.566	199.607
6.89	99.8252	100.566	199.609
6.8925	99.8237	100.566	199.611
6.895	99.8223	100.565	199.613
6.8975	99.8208	100.565	199.614
6.9	99.8194	100.564	199.616
6.9025	99.8179	100.564	199.618
6.905	99.8165	100.563	199.62
6.9075	99.8151	100.563	199.622
6.91	99.8137	100.562	199.624
6.9125	99.8123	100.562	199.626
6.915	99.8109	100.561	199.628
6.9175	99.8095	100.561	199.629
6.92	99.8081	100.561	199.631
6.9225	99.8067	100.56	199.633
6.925	99.8054	100.56	199.635
6.9275	99.804	100.559	199.637
6.93	99.8026	100.559	199.639
6.9325	99.8013	100.558	199.641
6.935	99.8	100.558	199.642
6.9375	99.7986	100.557	199.644
6.94	99.7973	100.557	199.646
6.9425	99.796	100.556	199.648
6.945	99.7947	100.556	199.65
6.9475	99.7934	100.555	199.652
6.95	99.7921	100.554	199.653
6.9525	99.7908	100.554	199.655
6.955	99.7895	100.553	199.657
6.9575	99.7882	100.553	199.659
6.96	99.7869	100.552	199.661
6.9625	99.7857	100.552	199.663
6.965	99.7844	100.551	199.664
6.9675	99.7831	100.551	199.666
6.97	99.7819	100.55	199.668
6.9725	99.7807	100.55	199.67
6.975	99.7794	100.549	199.671
6.9775	99.7782	100.549	199.673
6.98	99.777	100.548	199.675
6.9825	99.7758	100.547	199.677
6.985	99.7746	100.547	199.679
6.9875	99.7734	100.546	199.68
6.99	99.7722	100.546	199.682
6.9925	99.771	100.545	199.684
6.995	99.7698	100.545	199.686
6.9975	99.7686	100.544	199.687
7	99.7675	100.543	199.689
7.0025	99.7663	100.543	199.691
7.005	99.7652	100.542	199.693
7.0075	99.764	100.542	199.694
7.01	99.7629	100.541	199.696
7.0125	99.7617	100.54	199.698
7.015	99.7606	100.54	199.7
7.0175	99.7595	100.539	199.701
7.02	99.7584	100.539	199.703
7.0225	99.7573	100.538	199.705
7.025	99.7562	100.537	199.706
7.0275	99.7551	100.537	199.708
7.03	99.754	100.536	199.71
7.0325	99.7529	100.536	199.712
7.035	99.7518	100.535	199.713
7.0375	99.7508	100.534	199.715
7.04	99.7497	100.534	199.717
7.0425	99.7486	100.533	199.718
7.045	99.7476	100.532	199.72
7.0475	99.7466	100.532	199.722
7.05	99.7455	100.531	199.723
7.0525	99.7445	100.531	199.725
7.055	99.7435	100.53	199.727
7.0575	99.7424	100.529	199.728
7.06	99.7414	100.529	199.73
7.0625	99.7404	100.528	199.732
7.065	99.7394	100.527	199.733
7.0675	99.7384	100.527	199.735
7.07	99.7374	100.526	199.737
7.0725	99.7365	100.525	199.738
7.075	99.7355	100.525	199.74
7.0775	99.7345	100.524	199.742
7.08	99.7336	100.523	199.743
7.0825	99.7326	100.523	199.745
7.085	99.7316	100.522	199.746
7.0875	99.7307	100.521	199.748
7.09	99.7298	100.521	199.75
7.0925	99.7288	100.52	199.751
7.095	99.7279	100.519	199.753
7.0975	99.727	100.519	199.754
7.1	99.7261	100.518	199.756
7.1025	99.7252	100.517	199.758
7.105	99.7243	100.516	199.759
7.1075	99.7234	100.516	199.761
7.11	99.7225	100.515	199.762
7.1125	99.7216	100.514	199.764
7.115	99.7207	100.514	199.766
7.1175	99.7198	100.513	199.767
7.12	99.719	100.512	199.769
7.1225	99.7181	100.512	199.77
7.125	99.7173	100.511	199.772
7.1275	99.7164	100.51	199.773
7.13	99.7156	100.509	199.775
7.1325	99.7147	100.509	199.777
7.135	99.7139	100.508	199.778
7.1375	99.7131	100.507	199.78
7.14	99.7122	100.507	199.781
7.1425	99.7114	100.506	199.783
7.145	99.7106	100.505	199.784
7.1475	99.7098	100.504	199.786
7.15	99.709	100.504	199.787
7.1525	99.7082	100.503	199.789
7.155	99.7075	100.502	199.79
7.1575	99.7067	100.501	199.792
7.16	99.7059	100.501	199.793
7.1625	99.7051	100.5	199.795
7.165	99.7044	100.499	199.796
7.1675	99.7036	100.498	199.798
7.17	99.7029	100.498	199.799
7.1725	99.7021	100.497	199.801
7.175	99.7014	100.496	199.802
7.1775	99.7006	100.496	199.804
7.18	99.6999	100.495	199.805
7.1825	99.6992	100.494	199.807
7.185	99.6985	100.493	199.808
7.1875	99.6978	100.492	199.81
7.19	99.697	100.492	199.811
7.1925	99.6963	100.491	199.813
7.195	99.6957	100.49	199.814
7.1975	99.695	100.489	199.816
7.2	99.6943	100.489	199.817
7.2025	99.6936	100.488	199.819
7.205	99.6929	100.487	199.82
7.2075	99.6923	100.486	199.821
7.21	99.6916	100.486	199.823
7.2125	99.6909	100.485	199.824
7.215	99.6903	100.484	199.826
7.2175	99.6896	100.483	199.827
7.22	99.689	100.482	199.829
7.2225	99.6884	100.482	199.83
7.225	99.6877	100.481	199.831
7.2275	99.6871	100.48	199.833
7.23	99.6865	100.479	199.834
7.2325	99.6859	100.479	199.836
7.235	99.6852	100.478	199.837
7.2375	99.6846	100.477	199.838
7.24	99.684	100.476	199.84
7.2425	99.6835	100.475	199.841
7.245	99.6829	100.475	199.843
7.2475	99.6823	100.474	199.844
7.25	99.6817	100.473	199.845
7.2525	99.6811	100.472	199.847
7.255	99.6806	100.471	199.848
7.2575	99.68	100.471	199.849
7.26	99.6794	100.47	199.851
7.2625	99.6789	100.469	199.852
7.265	99.6783	100.468	199.854
7.2675	99.6778	100.467	199.855
7.27	99.6773	100.467	199.856
7.2725	99.6767	100.466	199.858
7.275	99.6762	100.465	199.859
7.2775	99.6757	100.464	199.86
7.28	99.6752	100.463	199.862
7.2825	99.6746	100.462	199.863
7.285	99.6741	100.462	199.864
7.2875	99.6736	100.461	199.866
7.29	99.6731	100.46	199.867
7.2925	99.6726	100.459	199.868
7.295	99.6721	100.458	199.869
7.2975	99.6717	100.458	199.871
7.3	99.6712	100.457	199.872
7.3025	99.6707	100.456	199.873
7.305	99.6702	100.455	199.875
7.3075	99.6698	100.454	199.876
7.31	99.6693	100.453	199.877
7.3125	99.6689	100.453	199.879
7.315	99.6684	100.452	199.88
7.3175	99.668	100.451	199.881
7.32	99.6675	100.45	199.882
7.3225	99.6671	100.449	199.884
7.325	99.6667	100.448	199.885
7.3275	99.6662	100.448	199.886
7.33	99.6658	100.447	199.887
7.3325	99.6654	100.446	199.889
7.335	99.665	100.445	199.89
7.3375	99.6646	100.444	199.891
7.34	99.6642	100.443	199.892
7.3425	99.6638	100.443	199.894
7.345	99.6634	100.442	199.895
7.3475	99.663	100.441	199.896
7.35	99.6626	100.44	199.897
7.3525	99.6622	100.439	199.899
7.355	99.6619	100.438	199.9
7.3575	99.6615	100.437	199.901
7.36	99.6611	100.437	199.902
7.3625	99.6608	100.436	199.903
7.365	99.6604	100.435	199.905
7.3675	99.6601	100.434	199.906
7.37	99.6597	100.433	199.907
7.3725	99.6594	100.432	199.908
7.375	99.659	100.431	199.909
7.3775	99.6587	100.431	199.911
7.38	99.6584	100.43	199.912
7.3825	99.6581	100.429	199.913
7.385	99.6577	100.428	199.914
7.3875	99.6574	100.427	199.915
7.39	99.6571	100.426	199.917
7.3925	99.6568	100.425	199.918
7.395	99.6565	100.425	199.919
7.3975	99.6562	100.424	199.92
7.4	99.6559	100.423	199.921
7.4025	99.6556	100.422	199.922
7.405	99.6553	100.421	199.924
7.4075	99.6551	100.42	199.925
7.41	99.6548	100.419	199.926
7.4125	99.6545	100.419	199.927
7.415	99.6542	100.418	199.928
7.4175	99.654	100.417	199.929
7.42	99.6537	100.416	199.93
7.4225	99.6535	100.415	199.931
7.425	99.6532	100.414	199.933
7.4275	99.653	100.413	199.934
7.43	99.6527	100.412	199.935
7.4325	99.6525	100.412	199.936
7.435	99.6522	100.411	199.937
7.4375	99.652	100.41	199.938
7.44	99.6518	100.409	199.939
7.4425	99.6516	100.408	199.94
7.445	99.6513	100.407	199.941
7.4475	99.6511	100.406	199.943
7.45	99.6509	100.405	199.944
7.4525	99.6507	100.405	199.945
7.455	99.6505	100.404	199.946
7.4575	99.6503	100.403	199.947
7.46	99.6501	100.402	199.948
7.4625	99.6499	100.401	199.949
7.465	99.6497	100.4	199.95
7.4675	99.6496	100.399	199.951
7.47	99.6494	100.398	199.952
7.4725	99.6492	100.398	199.953
7.475	99.649	100.397	199.954
7.4775	99.6489	100.396	199.955
7.48	99.6487	100.395	199.956
7.4825	99.6486	100.394	199.957
7.485	99.6484	100.393	199.958
7.4875	99.6483	100.392	199.959
7.49	99.6481	100.391	199.961
7.4925	99.648	100.39	199.962
7.495	99.6478	100.39	199.963
7.4975	99.6477	100.389	199.964
7.5	99.6476	100.388	199.965
7.5025	99.6474	100.387	199.966
7.505	99.6473	100.386	199.967
7.5075	99.6472	100.385	199.968
7.51	99.6471	100.384	199.969
7.5125	99.647	100.383	199.97
7.515	99.6468	100.383	199.971
7.5175	99.6467	100.382	199.972
7.52	99.6466	100.381	199.973
7.5225	99.6465	100.38	199.974
7.525	99.6465	100.379	199.975
7.5275	99.6464	100.378	199.976
7.53	99.6463	100.377	199.977
7.5325	99.6462	100.376	199.977
7.535	99.6461	100.375	199.978
7.5375	99.646	100.375	199.979
7.54	99.646	100.374	199.98
7.5425	99.6459	100.373	199.981
7.545	99.6458	100.372	199.982
7.5475	99.6458	100.371	199.983
7.55	99.6457	100.37	199.984
7.5525	99.6457	100.369	199.985
7.555	99.6456	100.368	199.986
7.5575	99.6456	100.367	199.987
7.56	99.6455	100.367	199.988
7.5625	99.6455	100.366	199.989
7.565	99.6454	100.365	199.99
7.5675	99.6454	100.364	199.991
7.57	99.6454	100.363	199.992
7.5725	99.6454	100.362	199.993
7.575	99.6453	100.361	199.993
7.5775	99.6453	100.36	199.994
7.58	99.6453	100.359	199.995
7.5825	99.6453	100.359	199.996
7.585	99.6453	100.358	199.997
7.5875	99.6453	100.357	199.998
7.59	99.6453	100.356	199.999
7.5925	99.6453	100.355	200
7.595	99.6453	100.354	200.001
7.5975	99.6453	100.353	200.002
7.6	99.6453	100.352	200.002
7.6025	99.6453	100.351	200.003
7.605	99.6453	100.351	200.004
7.6075	99.6453	100.35	200.005
7.61	99.6454	100.349	200.006
7.6125	99.6454	100.348	200.007
7.615	99.6454	100.347	200.008
7.6175	99.6454	100.346	200.008
7.62	99.6455	100.345	200.009
7.6225	99.6455	100.344	200.01
7.625	99.6456	100.343	200.011
7.6275	99.6456	100.343	200.012
7.63	99.6457	100.342	200.013
7.6325	99.6457	100.341	200.014
7.635	99.6458	100.34	200.014
7.6375	99.6458	100.339	200.015
7.64	99.6459	100.338	200.016
7.6425	99.646	100.337	200.017
7.645	99.646	100.336	200.018
7.6475	99.6461	100.335	200.018
7.65	99.6462	100.335	200.019
7.6525	99.6462	100.334	200.02
7.655	99.6463	100.333	200.021
7.6575	99.6464	100.332	200.022
7.66	99.6465	100.331	200.023
7.6625	99.6466	100.33	200.023
7.665	99.6467	100.329	200.024
7.6675	99.6468	100.328	200.025
7.67	99.6469	100.327	200.026
7.6725	99.647	100.327	200.026
7.675	99.6471	100.326	200.027
7.6775	99.6472	100.325	200.028
7.68	99.6473	100.324	200.029
7.6825	99.6474	100.323	200.03
7.685	99.6475	100.322	200.03
7.6875	99.6476	100.321	200.031
7.69	99.6478	100.32	200.032
7.6925	99.6479	100.319	200.033
7.695	99.648	100.319	200.033
7.6975	99.6481	100.318	200.034
7.7	99.6483	100.317	200.035
7.7025	99.6484	100.316	200.036
7.705	99.6485	100.315	200.036
7.7075	99.6487	100.314	200.037
7.71	99.6488	100.313	200.038
7.7125	99.649	100.312	200.039
7.715	99.6491	100.312	200.039
7.7175	99.6493	100.311	200.04
7.72	99.6494	100.31	200.041
7.7225	99.6496	100.309	200.042
7.725	99.6497	100.308	200.042
7.7275	99.6499	100.307	200.043
7.73	99.6501	100.306	200.044
7.7325	99.6502	100.305	200.044
7.735	99.6504	100.305	200.045
7.7375	99.6506	100.304	200.046
7.74	99.6508	100.303	200.046
7.7425	99.6509	100.302	200.047
7.745	99.6511	100.301	200.048
7.7475	99.6513	100.3	200.049
7.75	99.6515	100.299	200.049
7.7525	99.6517	100.298	200.05
7.755	99.6519	100.298	200.051
7.7575	99.6521	100.297	200.051
7.76	99.6523	100.296	200.052
7.7625	99.6525	100.295	200.053
7.765	99.6527	100.294	200.053
7.7675	99.6529	100.293	200.054
7.77	99.6531	100.292	200.055
7.7725	99.6533	100.291	200.055
7.775	99.6535	100.291	200.056
7.7775	99.6537	100.29	200.057
7.78	99.6539	100.289	200.057
7.7825	99.6541	100.288	200.058
7.785	99.6544	100.287	200.059
7.7875	99.6546	100.286	200.059
7.79	99.6548	100.285	200.06
7.7925	99.655	100.284	200.06
7.795	99.6553	100.284	200.061
7.7975	99.6555	100.283	200.062
7.8	99.6557	100.282	200.062
7.8025	99.656	100.281	200.063
7.805	99.6562	100.28	200.064
7.8075	99.6564	100.279	200.064
7.81	99.6567	100.278	200.065
7.8125	99.6569	100.278	200.065
7.815	99.6572	100.277	200.066
7.8175	99.6574	100.276	200.067
7.82	99.6577	100.275	200.067
7.8225	99.6579	100.274	200.068
7.825	99.6582	100.273	200.069
7.8275	99.6585	100.272	200.069
7.83	99.6587	100.272	200.07
7.8325	99.659	100.271	200.07
7.835	99.6593	100.27	200.071
7.8375	99.6595	100.269	200.071
7.84	99.6598	100.268	200.072
7.8425	99.6601	100.267	200.073
7.845	99.6604	100.266	200.073
7.8475	99.6606	100.266	200.074
7.85	99.6609	100.265	200.074
7.8525	99.6612	100.264	200.075
7.855	99.6615	100.263	200.075
7.8575	99.6618	100.262	200.076
7.86	99.6621	100.261	200.077
7.8625	99.6623	100.261	200.077
7.865	99.6626	100.26	200.078
7.8675	99.6629	100.259	200.078
7.87	99.6632	100.258	200.079
7.8725	99.6635	100.257	200.079
7.875	99.6638	100.256	200.08
7.8775	99.6641	100.255	200.08
7.88	99.6644	100.255	200.081
7.8825	99.6647	100.254	200.082
7.885	99.665	100.253	200.082
7.8875	99.6654	100.252	200.083
7.89	99.6657	100.251	200.083
7.8925	99.666	100.25	200.084
7.895	99.6663	100.25	200.084
7.8975	99.6666	100.249	200.085
7.9	99.6669	100.248	200.085
7.9025	99.6673	100.247	200.086
7.905	99.6676	100.246	200.086
7.9075	99.6679	100.245	200.087
7.91	99.6682	100.245	200.087
7.9125	99.6686	100.244	200.088
7.915	99.6689	100.243	200.088
7.9175	99.6692	100.242	200.089
7.92	99.6696	100.241	200.089
7.9225	99.6699	100.24	200.09
7.925	99.6702	100.24	200.09
7.9275	99.6706	100.239	200.091
7.93	99.6709	100.238	200.091
7.9325	99.6713	100.237	200.092
7.935	99.6716	100.236	200.092
7.9375	99.672	100.235	200.093
7.94	99.6723	100.235	200.093
7.9425	99.6727	100.234	200.093
7.945	99.673	100.233	200.094
7.9475	99.6734	100.232	200.094
7.95	99.6737	100.231	200.095
7.9525	99.6741	100.231	200.095
7.955	99.6745	100.23	200.096
7.9575	99.6748	100.229	200.096
7.96	99.6752	100.228	200.097
7.9625	99.6755	100.227	200.097
7.965	99.6759	100.226	200.098
7.9675	99.6763	100.226	200.098
7.97	99.6767	100.225	200.098
7.9725	99.677	100.224	200.099
7.975	99.6774	100.223	200.099
7.9775	99.6778	100.222	200.1
7.98	99.6782	100.222	200.1
7.9825	99.6785	100.221	200.101
7.985	99.6789	100.22	200.101
7.9875	99.6793	100.219	200.101
7.99	99.6797	100.218	200.102
7.9925	99.6801	100.218	200.102
7.995	99.6804	100.217	200.103
7.9975	99.6808	100.216	200.103
8	99.6812	100.215	200.104
8.0025	99.6816	100.214	200.104
8.005	99.682	100.214	200.104
8.0075	99.6824	100.213	200.105
8.01	99.6828	100.212	200.105
8.0125	99.6832	100.211	200.106
8.015	99.6836	100.21	200.106
8.0175	99.684	100.21	200.106
8.02	99.6844	100.209	200.107
8.0225	99.6848	100.208	200.107
8.025	99.6852	100.207	200.108
8.0275	99.6856	100.206	200.108
8.03	99.686	100.206	200.108
8.0325	99.6864	100.205	200.109
8.035	99.6868	100.204	200.109
8.0375	99.6872	100.203	200.109
8.04	99.6877	100.203	200.11
8.0425	99.6881	100.202	200.11
8.045	99.6885	100.201	200.111
8.0475	99.6889	100.2	200.111
8.05	99.6893	100.199	200.111
8.0525	99.6897	100.199	200.112
8.055	99.6902	100.198	200.112
8.0575	99.6906	100.197	200.112
8.06	99.691	100.196	200.113
8.0625	99.6914	100.196	200.113
8.065	99.6919	100.195	200.113
8.0675	99.6923	100.194	200.114
8.07	99.6927	100.193	200.114
8.0725	99.6931	100.192	200.114
8.075	99.6936	100.192	200.115
8.0775	99.694	100.191	200.115
8.08	99.6944	100.19	200.115
8.0825	99.6949	100.189	200.116
8.085	99.6953	100.189	200.116
8.0875	99.6957	100.188	200.116
8.09	99.6962	100.187	200.117
8.0925	99.6966	100.186	200.117
8.095	99.6971	100.186	200.117
8.0975	99.6975	100.185	200.118
8.1	99.6979	100.184	200.118
8.1025	99.6984	100.183	200.118
8.105	99.6988	100.183	200.119
8.1075	99.6993	100.182	200.119
8.11	99.6997	100.181	200.119
8.1125	99.7002	100.18	200.12
8.115	99.7006	100.18	200.12
8.1175	99.7011	100.179	200.12
8.12	99.7015	100.178	200.12
8.1225	99.702	100.177	200.121
8.125	99.7024	100.177	200.121
8.1275	99.7029	100.176	200.121
8.13	99.7034	100.175	200.122
8.1325	99.7038	100.174	200.122
8.135	99.7043	100.174	200.122
8.1375	99.7047	100.173	200.122
8.14	99.7052	100.172	200.123
8.1425	99.7057	100.171	200.123
8.145	99.7061	100.171	200.123
8.1475	99.7066	100.17	200.124
8.15	99.707	100.169	200.124
8.1525	99.7075	100.168	200.124
8.155	99.708	100.168	200.124
8.1575	99.7084	100.167	200.125
8.16	99.7089	100.166	200.125
8.1625	99.7094	100.166	200.125
8.165	99.7099	100.165	200.125
8.1675	99.7103	100.164	200.126
8.17	99.7108	100.163	200.126
8.1725	99.7113	100.163	200.126
8.175	99.7117	100.162	200.126
8.1775	99.7122	100.161	200.127
8.18	99.7127	100.16	200.127
8.1825	99.7132	100.16	200.127
8.185	99.7137	100.159	200.127
8.1875	99.7141	100.158	200.128
8.19	99.7146	100.158	200.128
8.1925	99.7151	100.157	200.128
8.195	99.7156	100.156	200.128
8.1975	99.7161	100.155	200.128
8.2	99.7165	100.155	200.129
8.2025	99.717	100.154	200.129
8.205	99.7175	100.153	200.129
8.2075	99.718	100.153	200.129
8.21	99.7185	100.152	200.13
8.2125	99.719	100.151	200.13
8.215	99.7195	100.151	200.13
8.2175	99.7199	100.15	200.13
8.22	99.7204	100.149	200.13
8.2225	99.7209	100.148	200.131
8.225	99.7214	100.148	200.131
8.2275	99.7219	100.147	200.131
8.23	99.7224	100.146	200.131
8.2325	99.7229	100.146	200.131
8.235	99.7234	100.145	200.132
8.2375	99.7239	100.144	200.132
8.24	99.7244	100.144	200.132
8.2425	99.7249	100.143	200.132
8.245	99.7254	100.142	200.132
8.2475	99.7259	100.141	200.133
8.25	99.7264	100.141	200.133
8.2525	99.7269	100.14	200.133
8.255	99.7274	100.139	200.133
8.2575	99.7279	100.139	200.133
8.26	99.7284	100.138	200.134
8.2625	99.7289	100.137	200.134
8.265	99.7294	100.137	200.134
8.2675	99.7299	100.136	200.134
8.27	99.7304	100.135	200.134
8.2725	99.7309	100.135	200.134
8.275	99.7314	100.134	200.135
8.2775	99.7319	100.133	200.135
8.28	99.7324	100.133	200.135
8.2825	99.7329	100.132	200.135
8.285	99.7334	100.131	200.135
8.2875	99.7339	100.131	200.135
8.29	99.7344	100.13	200.136
8.2925	99.735	100.129	200.136
8.295	99.7355	100.129	200.136
8.2975	99.736	100.128	200.136
8.3	99.7365	100.127	200.136
8.3025	99.737	100.127	200.136
8.305	99.7375	100.126	200.136
8.3075	99.738	100.125	200.137
8.31	99.7385	100.125	200.137
8.3125	99.739	100.124	200.137
8.315	99.7396	100.123	200.137
8.3175	99.7401	100.123	200.137
8.32	99.7406	100.122	200.137
8.3225	99.7411	100.121	200.137
8.325	99.7416	100.121	200.138
8.3275	99.7421	100.12	200.138
8.33	99.7427	100.12	200.138
8.3325	99.7432	100.119	200.138
8.335	99.7437	100.118	200.138
8.3375	99.7442	100.118	200.138
8.34	99.7447	100.117	200.138
8.3425	99.7453	100.116	200.138
8.345	99.7458	100.116	200.139
8.3475	99.7463	100.115	200.139
8.35	99.7468	100.114	200.139
8.3525	99.7473	100.114	200.139
8.355	99.7479	100.113	200.139
8.3575	99.7484	100.113	200.139
8.36	99.7489	100.112	200.139
8.3625	99.7494	100.111	200.139
8.365	99.7499	100.111	200.139
8.3675	99.7505	100.11	200.14
8.37	99.751	100.109	200.14
8.3725	99.7515	100.109	200.14
8.375	99.752	100.108	200.14
8.3775	99.7526	100.108	200.14
8.38	99.7531	100.107	200.14
8.3825	99.7536	100.106	200.14
8.385	99.7541	100.106	200.14
8.3875	99.7547	100.105	200.14
8.39	99.7552	100.104	200.14
8.3925	99.7557	100.104	200.14
8.395	99.7563	100.103	200.141
8.3975	99.7568	100.103	200.141
8.4	99.7573	100.102	200.141
8.4025	99.7578	100.101	200.141
8.405	99.7584	100.101	200.141
8.4075	99.7589	100.1	200.141
8.41	99.7594	100.1	200.141
8.4125	99.76	100.099	200.141
8.415	99.7605	100.098	200.141
8.4175	99.761	100.098	200.141
8.42	99.7615	100.097	200.141
8.4225	99.7621	100.097	200.141
8.425	99.7626	100.096	200.141
8.4275	99.7631	100.095	200.141
8.43	99.7637	100.095	200.142
8.4325	99.7642	100.094	200.142
8.435	99.7647	100.094	200.142
8.4375	99.7653	100.093	200.142
8.44	99.7658	100.092	200.142
8.4425	99.7663	100.092	200.142
8.445	99.7669	100.091	200.142
8.4475	99.7674	100.091	200.142
8.45	99.7679	100.09	200.142
8.4525	99.7685	100.09	200.142
8.455	99.769	100.089	200.142
8.4575	99.7695	100.088	200.142
8.46	99.7701	100.088	200.142
8.4625	99.7706	100.087	200.142
8.465	99.7711	100.087	200.142
8.4675	99.7717	100.086	200.142
8.47	99.7722	100.086	200.142
8.4725	99.7727	100.085	200.142
8.475	99.7733	100.084	200.142
8.4775	99.7738	100.084	200.142
8.48	99.7743	100.083	200.142
8.4825	99.7749	100.083	200.142
8.485	99.7754	100.082	200.142
8.4875	99.7759	100.082	200.142
8.49	99.7765	100.081	200.143
8.4925	99.777	100.08	200.143
8.495	99.7775	100.08	200.143
8.4975	99.7781	100.079	200.143
8.5	99.7786	100.079	200.143
8.5025	99.7791	100.078	200.143
8.505	99.7797	100.078	200.143
8.5075	99.7802	100.077	200.143
8.51	99.7808	100.077	200.143
8.5125	99.7813	100.076	200.143
8.515	99.7818	100.075	200.143
8.5175	99.7824	100.075	200.143
8.52	99.7829	100.074	200.143
8.5225	99.7834	100.074	200.143
8.525	99.784	100.073	200.143
8.5275	99.7845	100.073	200.143
8.53	99.785	100.072	200.143
8.5325	99.7856	100.072	200.143
8.535	99.7861	100.071	200.143
8.5375	99.7866	100.071	200.143
8.54	99.7872	100.07	200.143
8.5425	99.7877	100.07	200.143
8.545	99.7883	100.069	200.143
8.5475	99.7888	100.068	200.143
8.55	99.7893	100.068	200.143
8.5525	99.7899	100.067	200.143
8.555	99.7904	100.067	200.143
8.5575	99.7909	100.066	200.143
8.56	99.7915	100.066	200.143
8.5625	99.792	100.065	200.143
8.565	99.7925	100.065	200.143
8.5675	99.7931	100.064	200.143
8.57	99.7936	100.064	200.143
8.5725	99.7941	100.063	200.143
8.575	99.7947	100.063	200.143
8.5775	99.7952	100.062	200.143
8.58	99.7957	100.062	200.143
8.5825	99.7963	100.061	200.142
8.585	99.7968	100.061	200.142
8.5875	99.7973	100.06	200.142
8.59	99.7979	100.06	200.142
8.5925	99.7984	100.059	200.142
8.595	99.799	100.059	200.142
8.5975	99.7995	100.058	200.142
8.6	99.8	100.058	200.142
8.6025	99.8006	100.057	200.142
8.605	99.8011	100.057	200.142
8.6075	99.8016	100.056	200.142
8.61	99.8022	100.056	200.142
8.6125	99.8027	100.055	200.142
8.615	99.8032	100.055	200.142
8.6175	99.8038	100.054	200.142
8.62	99.8043	100.054	200.142
8.6225	99.8048	100.053	200.142
8.625	99.8053	100.053	200.142
8.6275	99.8059	100.052	200.142
8.63	99.8064	100.052	200.142
8.6325	99.8069	100.051	200.142
8.635	99.8075	100.051	200.142
8.6375	99.808	100.05	200.142
8.64	99.8085	100.05	200.142
8.6425	99.8091	100.049	200.142
8.645	99.8096	100.049	200.141
8.6475	99.8101	100.048	200.141
8.65	99.8107	100.048	200.141
8.6525	99.8112	100.047	200.141
8.655	99.8117	100.047	200.141
8.6575	99.8123	100.047	200.141
8.66	99.8128	100.046	200.141
8.6625	99.8133	100.046	200.141
8.665	99.8138	100.045	200.141
8.6675	99.8144	100.045	200.141
8.67	99.8149	100.044	200.141
8.6725	99.8154	100.044	200.141
8.675	99.816	100.043	200.141
8.6775	99.8165	100.043	200.141
8.68	99.817	100.042	200.141
8.6825	99.8175	100.042	200.141
8.685	99.8181	100.041	200.14
8.6875	99.8186	100.041	200.14
8.69	99.8191	100.041	200.14
8.6925	99.8196	100.04	200.14
8.695	99.8202	100.04	200.14
8.6975	99.8207	100.039	200.14
8.7	99.8212	100.039	200.14
8.7025	99.8217	100.038	200.14
8.705	99.8223	100.038	200.14
8.7075	99.8228	100.037	200.14
8.71	99.8233	100.037	200.14
8.7125	99.8238	100.037	200.14
8.715	99.8244	100.036	200.14
8.7175	99.8249	100.036	200.139
8.72	99.8254	100.035	200.139
8.7225	99.8259	100.035	200.139
8.725	99.8265	100.034	200.139
8.7275	99.827	100.034	200.139
8.73	99.8275	100.033	200.139
8.7325	99.828	100.033	200.139
8.735	99.8285	100.033	200.139
8.7375	99.8291	100.032	200.139
8.74	99.8296	100.032	200.139
8.7425	99.8301	100.031	200.139
8.745	99.8306	100.031	200.138
8.7475	99.8311	100.03	200.138
8.75	99.8317	100.03	200.138
8.7525	99.8322	100.03	200.138
8.755	99.8327	100.029	200.138
8.7575	99.8332	100.029	200.138
8.76	99.8337	100.028	200.138
8.7625	99.8343	100.028	200.138
8.765	99.8348	100.028	200.138
8.7675	99.8353	100.027	200.138
8.77	99.8358	100.027	200.137
8.7725	99.8363	100.026	200.137
8.775	99.8368	100.026	200.137
8.7775	99.8373	100.026	200.137
8.78	99.8379	100.025	200.137
8.7825	99.8384	100.025	200.137
8.785	99.8389	100.024	200.137
8.7875	99.8394	100.024	200.137
8.79	99.8399	100.024	200.137
8.7925	99.8404	100.023	200.136
8.795	99.8409	100.023	200.136
8.7975	99.8414	100.022	200.136
8.8	99.842	100.022	200.136
8.8025	99.8425	100.022	200.136
8.805	99.843	100.021	200.136
8.8075	99.8435	100.021	200.136
8.81	99.844	100.02	200.136
8.8125	99.8445	100.02	200.136
8.815	99.845	100.02	200.135
8.8175	99.8455	100.019	200.135
8.82	99.846	100.019	200.135
8.8225	99.8465	100.018	200.135
8.825	99.847	100.018	200.135
8.8275	99.8475	100.018	200.135
8.83	99.8481	100.017	200.135
8.8325	99.8486	100.017	200.135
8.835	99.8491	100.017	200.134
8.8375	99.8496	100.016	200.134
8.84	99.8501	100.016	200.134
8.8425	99.8506	100.015	200.134
8.845	99.8511	100.015	200.134
8.8475	99.8516	100.015	200.134
8.85	99.8521	100.014	200.134
8.8525	99.8526	100.014	200.134
8.855	99.8531	100.014	200.133
8.8575	99.8536	100.013	200.133
8.86	99.8541	100.013	200.133
8.8625	99.8546	100.012	200.133
8.865	99.8551	100.012	200.133
8.8675	99.8556	100.012	200.133
8.87	99.8561	100.011	200.133
8.8725	99.8566	100.011	200.132
8.875	99.8571	100.011	200.132
8.8775	99.8576	100.01	200.132
8.88	99.8581	100.01	200.132
8.8825	99.8586	100.01	200.132
8.885	99.859	100.009	200.132
8.8875	99.8595	100.009	200.132
8.89	99.86	100.009	200.131
8.8925	99.8605	100.008	200.131
8.895	99.861	100.008	200.131
8.8975	99.8615	100.007	200.131
8.9	99.862	100.007	200.131
8.9025	99.8625	100.007	200.131
8.905	99.863	100.006	200.131
8.9075	99.8635	100.006	200.13
8.91	99.864	100.006	200.13
8.9125	99.8644	100.005	200.13
8.915	99.8649	100.005	200.13
8.9175	99.8654	100.005	200.13
8.92	99.8659	100.004	200.13
8.9225	99.8664	100.004	200.13
8.925	99.8669	100.004	200.129
8.9275	99.8674	100.003	200.129
8.93	99.8679	100.003	200.129
8.9325	99.8683	100.003	200.129
8.935	99.8688	100.002	200.129
8.9375	99.8693	100.002	200.129
8.94	99.8698	100.002	200.128
8.9425	99.8703	100.001	200.128
8.945	99.8707	100.001	200.128
8.9475	99.8712	100.001	200.128
8.95	99.8717	100	200.128
8.9525	99.8722	100	200.128
8.955	99.8727	99.9998	200.128
8.9575	99.8731	99.9995	200.127
8.96	99.8736	99.9992	200.127
8.9625	99.8741	99.9989	200.127
8.965	99.8746	99.9986	200.127
8.9675	99.875	99.9982	200.127
8.97	99.8755	99.9979	200.127
8.9725	99.876	99.9976	200.126
8.975	99.8765	99.9973	200.126
8.9775	99.8769	99.997	200.126
8.98	99.8774	99.9967	200.126
8.9825	99.8779	99.9964	200.126
8.985	99.8784	99.9961	200.126
8.9875	99.8788	99.9958	200.125
8.99	99.8793	99.9955	200.125
8.9925	99.8798	99.9952	200.125
8.995	99.8802	99.9949	200.125
8.9975	99.8807	99.9946	200.125
9	99.8812	99.9943	200.125
9.0025	99.8816	99.994	200.124
9.005	99.8821	99.9937	200.124
9.0075	99.8826	99.9934	200.124
9.01	99.883	99.9931	200.124
9.0125	99.8835	99.9928	200.124
9.015	99.884	99.9925	200.124
9.0175	99.8844	99.9922	200.123
9.02	99.8849	99.9919	200.123
9.0225	99.8853	99.9917	200.123
9.025	99.8858	99.9914	200.123
9.0275	99.8863	99.9911	200.123
9.03	99.8867	99.9908	200.122
9.0325	99.8872	99.9905	200.122
9.035	99.8876	99.9902	200.122
9.0375	99.8881	99.99	200.122
9.04	99.8886	99.9897	200.122
9.0425	99.889	99.9894	200.122
9.045	99.8895	99.9891	200.121
9.0475	99.8899	99.9888	200.121
9.05	99.8904	99.9886	200.121
9.0525	99.8908	99.9883	200.121
9.055	99.8913	99.988	200.121
9.0575	99.8917	99.9878	200.121
9.06	99.8922	99.9875	200.12
9.0625	99.8926	99.9872	200.12
9.065	99.8931	99.9869	200.12
9.0675	99.8935	99.9867	200.12
9.07	99.894	99.9864	200.12
9.0725	99.8944	99.9862	200.119
9.075	99.8949	99.9859	200.119
9.0775	99.8953	99.9856	200.119
9.08	99.8958	99.9854	200.119
9.0825	99.8962	99.9851	200.119
9.085	99.8967	99.9848	200.118
9.0875	99.8971	99.9846	200.118
9.09	99.8976	99.9843	200.118
9.0925	99.898	99.9841	200.118
9.095	99.8984	99.9838	200.118
9.0975	99.8989	99.9836	200.118
9.1	99.8993	99.9833	200.117
9.1025	99.8998	99.9831	200.117
9.105	99.9002	99.9828	200.117
9.1075	99.9006	99.9826	200.117
9.11	99.9011	99.9823	200.117
9.1125	99.9015	99.9821	200.116
9.115	99.902	99.9818	200.116
9.1175	99.9024	99.9816	200.116
9.12	99.9028	99.9813	200.116
9.1225	99.9033	99.9811	200.116
9.125	99.9037	99.9809	200.115
9.1275	99.9041	99.9806	200.115
9.13	99.9046	99.9804	200.115
9.1325	99.905	99.9801	200.115
9.135	99.9054	99.9799	200.115
9.1375	99.9058	99.9797	200.114
9.14	99.9063	99.9794	200.114
9.1425	99.9067	99.9792	200.114
9.145	99.9071	99.979	200.114
9.1475	99.9076	99.9787	200.114
9.15	99.908	99.9785	200.114
9.1525	99.9084	99.9783	200.113
9.155	99.9088	99.978	200.113
9.1575	99.9093	99.9778	200.113
9.16	99.9097	99.9776	200.113
9.1625	99.9101	99.9774	200.113
9.165	99.9105	99.9771	200.112
9.1675	99.9109	99.9769	200.112
9.17	99.9114	99.9767	200.112
9.1725	99.9118	99.9765	200.112
9.175	99.9122	99.9763	200.112
9.1775	99.9126	99.976	200.111
9.18	99.913	99.9758	200.111
9.1825	99.9135	99.9756	200.111
9.185	99.9139	99.9754	200.111
9.1875	99.9143	99.9752	200.111
9.19	99.9147	99.975	200.11
9.1925	99.9151	99.9747	200.11
9.195	99.9155	99.9745	200.11
9.1975	99.9159	99.9743	200.11
9.2	99.9163	99.9741	200.11
9.2025	99.9168	99.9739	200.109
9.205	99.9172	99.9737	200.109
9.2075	99.9176	99.9735	200.109
9.21	99.918	99.9733	200.109
9.2125	99.9184	99.9731	200.109
9.215	99.9188	99.9729	200.108
9.2175	99.9192	99.9727	200.108
9.22	99.9196	99.9725	200.108
9.2225	99.92	99.9723	200.108
9.225	99.9204	99.9721	200.108
9.2275	99.9208	99.9719	200.107
9.23	99.9212	99.9717	200.107
9.2325	99.9216	99.9715	200.107
9.235	99.922	99.9713	200.107
9.2375	99.9224	99.9711	200.106
9.24	99.9228	99.9709	200.106
9.2425	99.9232	99.9707	200.106
9.245	99.9236	99.9705	200.106
9.2475	99.924	99.9703	200.106
9.25	99.9244	99.9701	200.105
9.2525	99.9248	99.9699	200.105
9.255	99.9252	99.9698	200.105
9.2575	99.9256	99.9696	200.105
9.26	99.926	99.9694	200.105
9.2625	99.9264	99.9692	200.104
9.265	99.9268	99.969	200.104
9.2675	99.9272	99.9688	200.104
9.27	99.9275	99.9687	200.104
9.2725	99.9279	99.9685	200.104
9.275	99.9283	99.9683	200.103
9.2775	99.9287	99.9681	200.103
9.28	99.9291	99.9679	200.103
9.2825	99.9295	99.9678	200.103
9.285	99.9299	99.9676	200.103
9.2875	99.9303	99.9674	200.102
9.29	99.9306	99.9672	200.102
9.2925	99.931	99.9671	200.102
9.295	99.9314	99.9669	200.102
9.2975	99.9318	99.9667	200.102
9.3	99.9322	99.9665	200.101
9.3025	99.9325	99.9664	200.101
9.305	99.9329	99.9662	200.101
9.3075	99.9333	99.966	200.101
9.31	99.9337	99.9659	200.1
9.3125	99.934	99.9657	200.1
9.315	99.9344	99.9655	200.1
9.3175	99.9348	99.9654	200.1
9.32	99.9352	99.9652	200.1
9.3225	99.9355	99.9651	200.099
9.325	99.9359	99.9649	200.099
9.3275	99.9363	99.9647	200.099
9.33	99.9367	99.9646	200.099
9.3325	99.937	99.9644	200.099
9.335	99.9374	99.9643	200.098
9.3375	99.9378	99.9641	200.098
9.34	99.9381	99.964	200.098
9.3425	99.9385	99.9638	200.098
9.345	99.9389	99.9636	200.097
9.3475	99.9392	99.9635	200.097
9.35	99.9396	99.9633	200.097
9.3525	99.94	99.9632	200.097
9.355	99.9403	99.963	200.097
9.3575	99.9407	99.9629	200.096
9.36	99.941	99.9627	200.096
9.3625	99.9414	99.9626	200.096
9.365	99.9418	99.9625	200.096
9.3675	99.9421	99.9623	200.096
9.37	99.9425	99.9622	200.095
9.3725	99.9428	99.962	200.095
9.375	99.9432	99.9619	200.095
9.3775	99.9436	99.9617	200.095
9.38	99.9439	99.9616	200.094
9.3825	99.9443	99.9615	200.094
9.385	99.9446	99.9613	200.094
9.3875	99.945	99.9612	200.094
9.39	99.9453	99.961	200.094
9.3925	99.9457	99.9609	200.093
9.395	99.946	99.9608	200.093
9.3975	99.9464	99.9606	200.093
9.4	99.9467	99.9605	200.093
9.4025	99.9471	99.9604	200.093
9.405	99.9474	99.9602	200.092
9.4075	99.9478	99.9601	200.092
9.41	99.9481	99.96	200.092
9.4125	99.9484	99.9599	200.092
9.415	99.9488	99.9597	200.091
9.4175	99.9491	99.9596	200.091
9.42	99.9495	99.9595	200.091
9.4225	99.9498	99.9593	200.091
9.425	99.9502	99.9592	200.091
9.4275	99.9505	99.9591	200.09
9.43	99.9508	99.959	200.09
9.4325	99.9512	99.9588	200.09
9.435	99.9515	99.9587	200.09
9.4375	99.9518	99.9586	200.09
9.44	99.9522	99.9585	200.089
9.4425	99.9525	99.9584	200.089
9.445	99.9528	99.9582	200.089
9.4475	99.9532	99.9581	200.089
9.45	99.9535	99.958	200.088
9.4525	99.9538	99.9579	200.088
9.455	99.9542	99.9578	200.088
9.4575	99.9545	99.9577	200.088
9.46	99.9548	99.9576	200.088
9.4625	99.9552	99.9574	200.087
9.465	99.9555	99.9573	200.087
9.4675	99.9558	99.9572	200.087
9.47	99.9561	99.9571	200.087
9.4725	99.9565	99.957	200.087
9.475	99.9568	99.9569	200.086
9.4775	99.9571	99.9568	200.086
9.48	99.9574	99.9567	200.086
9.4825	99.9578	99.9566	200.086
9.485	99.9581	99.9565	200.085
9.4875	99.9584	99.9564	200.085
9.49	99.9587	99.9563	200.085
9.4925	99.959	99.9562	200.085
9.495	99.9594	99.9561	200.085
9.4975	99.9597	99.956	200.084
9.5	99.96	99.9559	200.084
9.5025	99.9603	99.9558	200.084
9.505	99.9606	99.9557	200.084
9.5075	99.9609	99.9556	200.084
9.51	99.9612	99.9555	200.083
9.5125	99.9616	99.9554	200.083
9.515	99.9619	99.9553	200.083
9.5175	99.9622	99.9552	200.083
9.52	99.9625	99.9551	200.082
9.5225	99.9628	99.955	200.082
9.525	99.9631	99.9549	200.082
9.5275	99.9634	99.9548	200.082
9.53	99.9637	99.9547	200.082
9.5325	99.964	99.9546	200.081
9.535	99.9643	99.9545	200.081
9.5375	99.9646	99.9544	200.081
9.54	99.9649	99.9544	200.081
9.5425	99.9652	99.9543	200.081
9.545	99.9655	99.9542	200.08
9.5475	99.9658	99.9541	200.08
9.55	99.9661	99.954	200.08
9.5525	99.9664	99.9539	200.08
9.555	99.9667	99.9538	200.079
9.5575	99.967	99.9538	200.079
9.56	99.9673	99.9537	200.079
9.5625	99.9676	99.9536	200.079
9.565	99.9679	99.9535	200.079
9.5675	99.9682	99.9534	200.078
9.57	99.9685	99.9534	200.078
9.5725	99.9688	99.9533	200.078
9.575	99.9691	99.9532	200.078
9.5775	99.9694	99.9531	200.077
9.58	99.9697	99.953	200.077
9.5825	99.97	99.953	200.077
9.585	99.9702	99.9529	200.077
9.5875	99.9705	99.9528	200.077
9.59	99.9708	99.9527	200.076
9.5925	99.9711	99.9527	200.076
9.595	99.9714	99.9526	200.076
9.5975	99.9717	99.9525	200.076
9.6	99.972	99.9525	200.076
9.6025	99.9722	99.9524	200.075
9.605	99.9725	99.9523	200.075
9.6075	99.9728	99.9523	200.075
9.61	99.9731	99.9522	200.075
9.6125	99.9734	99.9521	200.075
9.615	99.9736	99.9521	200.074
9.6175	99.9739	99.952	200.074
9.62	99.9742	99.9519	200.074
9.6225	99.9745	99.9519	200.074
9.625	99.9748	99.9518	200.073
9.6275	99.975	99.9517	200.073
9.63	99.9753	99.9517	200.073
9.6325	99.9756	99.9516	200.073
9.635	99.9759	99.9516	200.073
9.6375	99.9761	99.9515	200.072
9.64	99.9764	99.9514	200.072
9.6425	99.9767	99.9514	200.072
9.645	99.9769	99.9513	200.072
9.6475	99.9772	99.9513	200.072
9.65	99.9775	99.9512	200.071
9.6525	99.9777	99.9511	200.071
9.655	99.978	99.9511	200.071
9.6575	99.9783	99.951	200.071
9.66	99.9785	99.951	200.07
9.6625	99.9788	99.9509	200.07
9.665	99.9791	99.9509	200.07
9.6675	99.9793	99.9508	200.07
9.67	99.9796	99.9508	200.07
9.6725	99.9798	99.9507	200.069
9.675	99.9801	99.9507	200.069
9.6775	99.9804	99.9506	200.069
9.68	99.9806	99.9506	200.069
9.6825	99.9809	99.9505	200.069
9.685	99.9811	99.9505	200.068
9.6875	99.9814	99.9504	200.068
9.69	99.9816	99.9504	200.068
9.6925	99.9819	99.9503	200.068
9.695	99.9822	99.9503	200.068
9.6975	99.9824	99.9502	200.067
9.7	99.9827	99.9502	200.067
9.7025	99.9829	99.9502	200.067
9.705	99.9832	99.9501	200.067
9.7075	99.9834	99.9501	200.067
9.71	99.9837	99.95	200.066
9.7125	99.9839	99.95	200.066
9.715	99.9842	99.95	200.066
9.7175	99.9844	99.9499	200.066
9.72	99.9847	99.9499	200.065
9.7225	99.9849	99.9498	200.065
9.725	99.9851	99.9498	200.065
9.7275	99.9854	99.9498	200.065
9.73	99.9856	99.9497	200.065
9.7325	99.9859	99.9497	200.064
9.735	99.9861	99.9497	200.064
9.7375	99.9864	99.9496	200.064
9.74	99.9866	99.9496	200.064
9.7425	99.9868	99.9496	200.064
9.745	99.9871	99.9495	200.063
9.7475	99.9873	99.9495	200.063
9.75	99.9875	99.9495	200.063
9.7525	99.9878	99.9494	200.063
9.755	99.988	99.9494	200.063
9.7575	99.9882	99.9494	200.062
9.76	99.9885	99.9493	200.062
9.7625	99.9887	99.9493	200.062
9.765	99.9889	99.9493	200.062
9.7675	99.9892	99.9493	200.062
9.77	99.9894	99.9492	200.061
9.7725	99.9896	99.9492	200.061
9.775	99.9899	99.9492	200.061
9.7775	99.9901	99.9492	200.061
9.78	99.9903	99.9491	200.061
9.7825	99.9905	99.9491	200.06
9.785	99.9908	99.9491	200.06
9.7875	99.991	99.9491	200.06
9.79	99.9912	99.949	200.06
9.7925	99.9914	99.949	200.06
9.795	99.9917	99.949	200.059
9.7975	99.9919	99.949	200.059
9.8	99.9921	99.949	200.059
9.8025	99.9923	99.9489	200.059
9.805	99.9926	99.9489	200.059
9.8075	99.9928	99.9489	200.058
9.81	99.993	99.9489	200.058
9.8125	99.9932	99.9489	200.058
9.815	99.9934	99.9488	200.058
9.8175	99.9936	99.9488	200.058
9.82	99.9939	99.9488	200.057
9.8225	99.9941	99.9488	200.057
9.825	99.9943	99.9488	200.057
9.8275	99.9945	99.9488	200.057
9.83	99.9947	99.9488	200.057
9.8325	99.9949	99.9487	200.056
9.835	99.9951	99.9487	200.056
9.8375	99.9953	99.9487	200.056
9.84	99.9956	99.9487	200.056
9.8425	99.9958	99.9487	200.056
9.845	99.996	99.9487	200.055
9.8475	99.9962	99.9487	200.055
9.85	99.9964	99.9487	200.055
9.8525	99.9966	99.9487	200.055
9.855	99.9968	99.9487	200.055
9.8575	99.997	99.9486	200.054
9.86	99.9972	99.9486	200.054
9.8625	99.9974	99.9486	200.054
9.865	99.9976	99.9486	200.054
9.8675	99.9978	99.9486	200.054
9.87	99.998	99.9486	200.053
9.8725	99.9982	99.9486	200.053
9.875	99.9984	99.9486	200.053
9.8775	99.9986	99.9486	200.053
9.88	99.9988	99.9486	200.053
9.8825	99.999	99.9486	200.052
9.885	99.9992	99.9486	200.052
9.8875	99.9994	99.9486	200.052
9.89	99.9996	99.9486	200.052
9.8925	99.9998	99.9486	200.052
9.895	100	99.9486	200.051
9.8975	100	99.9486	200.051
9.9	100	99.9486	200.051
9.9025	100.001	99.9486	200.051
9.905	100.001	99.9486	200.051
9.9075	100.001	99.9486	200.05
9.91	100.001	99.9486	200.05
9.9125	100.001	99.9486	200.05
9.915	100.001	99.9486	200.05
9.9175	100.002	99.9486	200.05
9.92	100.002	99.9486	200.05
9.9225	100.002	99.9486	200.049
9.925	100.002	99.9486	200.049
9.9275	100.002	99.9486	200.049
9.93	100.003	99.9486	200.049
9.9325	100.003	99.9486	200.049
9.935	100.003	99.9486	200.048
9.9375	100.003	99.9487	200.048
9.94	100.003	99.9487	200.048
9.9425	100.004	99.9487	200.048
9.945	100.004	99.9487	200.048
9.9475	100.004	99.9487	200.047
9.95	100.004	99.9487	200.047
9.9525	100.004	99.9487	200.047
9.955	100.004	99.9487	200.047
9.9575	100.005	99.9487	200.047
9.96	100.005	99.9487	200.047
9.9625	100.005	99.9488	200.046
9.965	100.005	99.9488	200.046
9.9675	100.005	99.9488	200.046
9.97	100.005	99.9488	200.046
9.9725	100.006	99.9488	200.046
9.975	100.006	99.9488	200.045
9.9775	100.006	99.9488	200.045
9.98	100.006	99.9489	200.045
9.9825	100.006	99.9489	200.045
9.985	100.006	99.9489	200.045
9.9875	100.007	99.9489	200.044
9.99	100.007	99.9489	200.044
9.9925	100.007	99.9489	200.044
9.995	100.007	99.949	200.044
9.9975	100.007	99.949	200.044
10	100.007	99.949	200.044
10.0025	100.008	99.949	200.043
10.005	100.008	99.949	200.043
10.0075	100.008	99.949	200.043
10.01	100.008	99.9491	200.043
10.0125	100.008	99.9491	200.043
10.015	100.008	99.9491	200.042
10.0175	100.009	99.9491	200.042
10.02	100.009	99.9491	200.042
10.0225	100.009	99.9492	200.042
10.025	100.009	99.9492	200.042
10.0275	100.009	99.9492	200.042
10.03	100.009	99.9492	200.041
10.0325	100.01	99.9493	200.041
10.035	100.01	99.9493	200.041
10.0375	100.01	99.9493	200.041
10.04	100.01	99.9493	200.041
10.0425	100.01	99.9494	200.041
10.045	100.01	99.9494	200.04
10.0475	100.01	99.9494	200.04
10.05	100.011	99.9494	200.04
10.0525	100.011	99.9495	200.04
10.055	100.011	99.9495	200.04
10.0575	100.011	99.9495	200.039
10.06	100.011	99.9495	200.039
10.0625	100.011	99.9496	200.039
10.065	100.011	99.9496	200.039
10.0675	100.012	99.9496	200.039
10.07	100.012	99.9497	200.039
10.0725	100.012	99.9497	200.038
10.075	100.012	99.9497	200.038
10.0775	100.012	99.9498	200.038
10.08	100.012	99.9498	200.038
10.0825	100.012	99.9498	200.038
10.085	100.013	99.9498	200.038
10.0875	100.013	99.9499	200.037
10.09	100.013	99.9499	200.037
10.0925	100.013	99.9499	200.037
10.095	100.013	99.95	200.037
10.0975	100.013	99.95	200.037
10.1	100.013	99.95	200.037
10.1025	100.014	99.9501	200.036
10.105	100.014	99.9501	200.036
10.1075	100.014	99.9501	200.036
10.11	100.014	99.9502	200.036
10.1125	100.014	99.9502	200.036
10.115	100.014	99.9502	200.035
10.1175	100.014	99.9503	200.035
10.12	100.015	99.9503	200.035
10.1225	100.015	99.9504	200.035
10.125	100.015	99.9504	200.035
10.1275	100.015	99.9504	200.035
10.13	100.015	99.9505	200.034
10.1325	100.015	99.9505	200.034
10.135	100.015	99.9505	200.034
10.1375	100.015	99.9506	200.034
10.14	100.016	99.9506	200.034
10.1425	100.016	99.9507	200.034
10.145	100.016	99.9507	200.033
10.1475	100.016	99.9507	200.033
10.15	100.016	99.9508	200.033
10.1525	100.016	99.9508	200.033
10.155	100.016	99.9509	200.033
10.1575	100.016	99.9509	200.033
10.16	100.017	99.9509	200.033
10.1625	100.017	99.951	200.032
10.165	100.017	99.951	200.032
10.1675	100.017	99.9511	200.032
10.17	100.017	99.9511	200.032
10.1725	100.017	99.9512	200.032
10.175	100.017	99.9512	200.032
10.1775	100.017	99.9512	200.031
10.18	100.018	99.9513	200.031
10.1825	100.018	99.9513	200.031
10.185	100.018	99.9514	200.031
10.1875	100.018	99.9514	200.031
10.19	100.018	99.9515	200.031
10.1925	100.018	99.9515	200.03
10.195	100.018	99.9516	200.03
10.1975	100.018	99.9516	200.03
10.2	100.018	99.9516	200.03
10.2025	100.019	99.9517	200.03
10.205	100.019	99.9517	200.03
10.2075	100.019	99.9518	200.029
10.21	100.019	99.9518	200.029
10.2125	100.019	99.9519	200.029
10.215	100.019	99.9519	200.029
10.2175	100.019	99.952	200.029
10.22	100.019	99.952	200.029
10.2225	100.019	99.9521	200.029
10.225	100.02	99.9521	200.028
10.2275	100.02	99.9522	200.028
10.23	100.02	99.9522	200.028
10.2325	100.02	99.9523	200.028
10.235	100.02	99.9523	200.028
10.2375	100.02	99.9524	200.028
10.24	100.02	99.9524	200.027
10.2425	100.02	99.9525	200.027
10.245	100.02	99.9525	200.027
10.2475	100.02	99.9526	200.027
10.25	100.021	99.9526	200.027
10.2525	100.021	99.9527	200.027
10.255	100.021	99.9527	200.027
10.2575	100.021	99.9528	200.026
10.26	100.021	99.9528	200.026
10.2625	100.021	99.9529	200.026
10.265	100.021	99.9529	200.026
10.2675	100.021	99.953	200.026
10.27	100.021	99.953	200.026
10.2725	100.021	99.9531	200.025
10.275	100.022	99.9531	200.025
10.2775	100.022	99.9532	200.025
10.28	100.022	99.9533	200.025
10.2825	100.022	99.9533	200.025
10.285	100.022	99.9534	200.025
10.2875	100.022	99.9534	200.025
10.29	100.022	99.9535	200.024
10.2925	100.022	99.9535	200.024
10.295	100.022	99.9536	200.024
10.2975	100.022	99.9536	200.024
10.3	100.022	99.9537	200.024
10.3025	100.023	99.9537	200.024
10.305	100.023	99.9538	200.024
10.3075	100.023	99.9539	200.023
10.31	100.023	99.9539	200.023
10.3125	100.023	99.954	200.023
10.315	100.023	99.954	200.023
10.3175	100.023	99.9541	200.023
10.32	100.023	99.9541	200.023
10.3225	100.023	99.9542	200.023
10.325	100.023	99.9543	200.022
10.3275	100.023	99.9543	200.022
10.33	100.023	99.9544	200.022
10.3325	100.024	99.9544	200.022
10.335	100.024	99.9545	200.022
10.3375	100.024	99.9546	200.022
10.34	100.024	99.9546	200.022
10.3425	100.024	99.9547	200.021
10.345	100.024	99.9547	200.021
10.3475	100.024	99.9548	200.021
10.35	100.024	99.9549	200.021
10.3525	100.024	99.9549	200.021
10.355	100.024	99.955	200.021
10.3575	100.024	99.955	200.021
10.36	100.024	99.9551	200.02
10.3625	100.025	99.9552	200.02
10.365	100.025	99.9552	200.02
10.3675	100.025	99.9553	200.02
10.37	100.025	99.9553	200.02
10.3725	100.025	99.9554	200.02
10.375	100.025	99.9555	200.02
10.3775	100.025	99.9555	200.019
10.38	100.025	99.9556	200.019
10.3825	100.025	99.9557	200.019
10.385	100.025	99.9557	200.019
10.3875	100.025	99.9558	200.019
10.39	100.025	99.9558	200.019
10.3925	100.025	99.9559	200.019
10.395	100.025	99.956	200.019
10.3975	100.026	99.956	200.018
10.4	100.026	99.9561	200.018
10.4025	100.026	99.9562	200.018
10.405	100.026	99.9562	200.018
10.4075	100.026	99.9563	200.018
10.41	100.026	99.9564	200.018
10.4125	100.026	99.9564	200.018
10.415	100.026	99.9565	200.017
10.4175	100.026	99.9566	200.017
10.42	100.026	99.9566	200.017
10.4225	100.026	99.9567	200.017
10.425	100.026	99.9568	200.017
10.4275	100.026	99.9568	200.017
10.43	100.026	99.9569	200.017
10.4325	100.026	99.9569	200.017
10.435	100.027	99.957	200.016
10.4375	100.027	99.9571	200.016
10.44	100.027	99.9571	200.016
10.4425	100.027	99.9572	200.016
10.445	100.027	99.9573	200.016
10.4475	100.027	99.9573	200.016
10.45	100.027	99.9574	200.016
10.4525	100.027	99.9575	200.016
10.455	100.027	99.9575	200.015
10.4575	100.027	99.9576	200.015
10.46	100.027	99.9577	200.015
10.4625	100.027	99.9578	200.015
10.465	100.027	99.9578	200.015
10.4675	100.027	99.9579	200.015
10.47	100.027	99.958	200.015
10.4725	100.027	99.958	200.015
10.475	100.027	99.9581	200.014
10.4775	100.028	99.9582	200.014
10.48	100.028	99.9582	200.014
10.4825	100.028	99.9583	200.014
10.485	100.028	99.9584	200.014
10.4875	100.028	99.9584	200.014
10.49	100.028	99.9585	200.014
10.4925	100.028	99.9586	200.014
10.495	100.028	99.9586	200.013
10.4975	100.028	99.9587	200.013
10.5	100.028	99.9588	200.013
10.5025	100.028	99.9589	200.013
10.505	100.028	99.9589	200.013
10.5075	100.028	99.959	200.013
10.51	100.028	99.9591	200.013
10.5125	100.028	99.9591	200.013
10.515	100.028	99.9592	200.013
10.5175	100.028	99.9593	200.012
10.52	100.028	99.9593	200.012
10.5225	100.028	99.9594	200.012
10.525	100.028	99.9595	200.012
10.5275	100.028	99.9596	200.012
10.53	100.029	99.9596	200.012
10.5325	100.029	99.9597	200.012
10.535	100.029	99.9598	200.012
10.5375	100.029	99.9598	200.011
10.54	100.029	99.9599	200.011
10.5425	100.029	99.96	200.011
10.545	100.029	99.9601	200.011
10.5475	100.029	99.9601	200.011
10.55	100.029	99.9602	200.011
10.5525	100.029	99.9603	200.011
10.555	100.029	99.9604	200.011
10.5575	100.029	99.9604	200.011
10.56	100.029	99.9605	200.01
10.5625	100.029	99.9606	200.01
10.565	100.029	99.9606	200.01
10.5675	100.029	99.9607	200.01
10.57	100.029	99.9608	200.01
10.5725	100.029	99.9609	200.01
10.575	100.029	99.9609	200.01
10.5775	100.029	99.961	200.01
10.58	100.029	99.9611	200.01
10.5825	100.029	99.9612	200.009
10.585	100.029	99.9612	200.009
10.5875	100.029	99.9613	200.009
10.59	100.029	99.9614	200.009
10.5925	100.03	99.9614	200.009
10.595	100.03	99.9615	200.009
10.5975	100.03	99.9616	200.009
10.6	100.03	99.9617	200.009
10.6025	100.03	99.9617	200.009
10.605	100.03	99.9618	200.009
10.6075	100.03	99.9619	200.008
10.61	100.03	99.962	200.008
10.6125	100.03	99.962	200.008
10.615	100.03	99.9621	200.008
10.6175	100.03	99.9622	200.008
10.62	100.03	99.9623	200.008
10.6225	100.03	99.9623	200.008
10.625	100.03	99.9624	200.008
10.6275	100.03	99.9625	200.008
10.63	100.03	99.9626	200.007
10.6325	100.03	99.9626	200.007
10.635	100.03	99.9627	200.007
10.6375	100.03	99.9628	200.007
10.64	100.03	99.9629	200.007
10.6425	100.03	99.9629	200.007
10.645	100.03	99.963	200.007
10.6475	100.03	99.9631	200.007
10.65	100.03	99.9632	200.007
10.6525	100.03	99.9632	200.007
10.655	100.03	99.9633	200.006
10.6575	100.03	99.9634	200.006
10.66	100.03	99.9635	200.006
10.6625	100.03	99.9635	200.006
10.665	100.03	99.9636	200.006
10.6675	100.03	99.9637	200.006
10.67	100.03	99.9638	200.006
10.6725	100.03	99.9638	200.006
10.675	100.03	99.9639	200.006
10.6775	100.03	99.964	200.006
10.68	100.03	99.9641	200.005
10.6825	100.03	99.9642	200.005
10.685	100.031	99.9642	200.005
10.6875	100.031	99.9643	200.005
10.69	100.031	99.9644	200.005
10.6925	100.031	99.9645	200.005
10.695	100.031	99.9645	200.005
10.6975	100.031	99.9646	200.005
10.7	100.031	99.9647	200.005
10.7025	100.031	99.9648	200.005
10.705	100.031	99.9648	200.005
10.7075	100.031	99.9649	200.004
10.71	100.031	99.965	200.004
10.7125	100.031	99.9651	200.004
10.715	100.031	99.9651	200.004
10.7175	100.031	99.9652	200.004
10.72	100.031	99.9653	200.004
10.7225	100.031	99.9654	200.004
10.725	100.031	99.9655	200.004
10.7275	100.031	99.9655	200.004
10.73	100.031	99.9656	200.004
10.7325	100.031	99.9657	200.004
10.735	100.031	99.9658	200.003
10.7375	100.031	99.9658	200.003
10.74	100.031	99.9659	200.003
10.7425	100.031	99.966	200.003
10.745	100.031	99.9661	200.003
10.7475	100.031	99.9661	200.003
10.75	100.031	99.9662	200.003
10.7525	100.031	99.9663	200.003
10.755	100.031	99.9664	200.003
10.7575	100.031	99.9665	200.003
10.76	100.031	99.9665	200.003
10.7625	100.031	99.9666	200.002
10.765	100.031	99.9667	200.002
10.7675	100.031	99.9668	200.002
10.77	100.031	99.9668	200.002
10.7725	100.031	99.9669	200.002
10.775	100.031	99.967	200.002
10.7775	100.031	99.9671	200.002
10.78	100.031	99.9672	200.002
10.7825	100.031	99.9672	200.002
10.785	100.031	99.9673	200.002
10.7875	100.031	99.9674	200.002
10.79	100.031	99.9675	200.002
10.7925	100.031	99.9675	200.001
10.795	100.031	99.9676	200.001
10.7975	100.031	99.9677	200.001
10.8	100.031	99.9678	200.001
10.8025	100.031	99.9678	200.001
10.805	100.031	99.9679	200.001
10.8075	100.031	99.968	200.001
10.81	100.031	99.9681	200.001
10.8125	100.031	99.9682	200.001
10.815	100.031	99.9682	200.001
10.8175	100.031	99.9683	200.001
10.82	100.031	99.9684	200.001
10.8225	100.031	99.9685	200
10.825	100.031	99.9685	200
10.8275	100.031	99.9686	200
10.83	100.031	99.9687	200
10.8325	100.031	99.9688	200
10.835	100.031	99.9689	200
10.8375	100.031	99.9689	200
10.84	100.031	99.969	200
10.8425	100.031	99.9691	200
10.845	100.031	99.9692	200
10.8475	100.031	99.9692	200
10.85	100.031	99.9693	200
10.8525	100.031	99.9694	200
10.855	100.031	99.9695	199.999
10.8575	100.031	99.9696	199.999
10.86	100.031	99.9696	199.999
10.8625	100.031	99.9697	199.999
10.865	100.031	99.9698	199.999
10.8675	100.031	99.9699	199.999
10.87	100.031	99.9699	199.999
10.8725	100.031	99.97	199.999
10.875	100.031	99.9701	199.999
10.8775	100.031	99.9702	199.999
10.88	100.031	99.9703	199.999
10.8825	100.031	99.9703	199.999
10.885	100.031	99.9704	199.999
10.8875	100.031	99.9705	199.998
10.89	100.031	99.9706	199.998
10.8925	100.031	99.9706	199.998
10.895	100.031	99.9707	199.998
10.8975	100.031	99.9708	199.998
10.9	100.031	99.9709	199.998
10.9025	100.031	99.971	199.998
10.905	100.031	99.971	199.998
10.9075	100.031	99.9711	199.998
10.91	100.031	99.9712	199.998
10.9125	100.031	99.9713	199.998
10.915	100.031	99.9713	199.998
10.9175	100.031	99.9714	199.998
10.92	100.031	99.9715	199.998
10.9225	100.031	99.9716	199.998
10.925	100.031	99.9716	199.997
10.9275	100.031	99.9717	199.997
10.93	100.031	99.9718	199.997
10.9325	100.031	99.9719	199.997
10.935	100.031	99.972	199.997
10.9375	100.031	99.972	199.997
10.94	100.031	99.9721	199.997
10.9425	100.031	99.9722	199.997
10.945	100.031	99.9723	199.997
10.9475	100.031	99.9723	199.997
10.95	100.031	99.9724	199.997
10.9525	100.031	99.9725	199.997
10.955	100.031	99.9726	199.997
10.9575	100.031	99.9727	199.997
10.96	100.031	99.9727	199.997
10.9625	100.031	99.9728	199.996
10.965	100.031	99.9729	199.996
10.9675	100.031	99.973	199.996
10.97	100.031	99.973	199.996
10.9725	100.031	99.9731	199.996
10.975	100.031	99.9732	199.996
10.9775	100.031	99.9733	199.996
10.98	100.031	99.9733	199.996
10.9825	100.031	99.9734	199.996
10.985	100.031	99.9735	199.996
10.9875	100.031	99.9736	199.996
10.99	100.031	99.9736	199.996
10.9925	100.031	99.9737	199.996
10.995	100.031	99.9738	199.996
10.9975	100.031	99.9739	199.996
11	100.031	99.974	199.996
11.0025	100.03	99.974	199.995
11.005	100.03	99.9741	199.995
11.0075	100.03	99.9742	199.995
11.01	100.03	99.9743	199.995
11.0125	100.03	99.9743	199.995
11.015	100.03	99.9744	199.995
11.0175	100.03	99.9745	199.995
11.02	100.03	99.9746	199.995
11.0225	100.03	99.9746	199.995
11.025	100.03	99.9747	199.995
11.0275	100.03	99.9748	199.995
11.03	100.03	99.9749	199.995
11.0325	100.03	99.9749	199.995
11.035	100.03	99.975	199.995
11.0375	100.03	99.9751	199.995
11.04	100.03	99.9752	199.995
11.0425	100.03	99.9752	199.995
11.045	100.03	99.9753	199.995
11.0475	100.03	99.9754	199.994
11.05	100.03	99.9755	199.994
11.0525	100.03	99.9755	199.994
11.055	100.03	99.9756	199.994
11.0575	100.03	99.9757	199.994
11.06	100.03	99.9758	199.994
11.0625	100.03	99.9758	199.994
11.065	100.03	99.9759	199.994
11.0675	100.03	99.976	199.994
11.07	100.03	99.9761	199.994
11.0725	100.03	99.9761	199.994
11.075	100.03	99.9762	199.994
11.0775	100.03	99.9763	199.994
11.08	100.03	99.9764	199.994
11.0825	100.03	99.9764	199.994
11.085	100.03	99.9765	199.994
11.0875	100.03	99.9766	199.994
11.09	100.03	99.9767	199.994
11.0925	100.03	99.9767	199.994
11.095	100.03	99.9768	199.993
11.0975	100.03	99.9769	199.993
11.1	100.03	99.977	199.993
11.1025	100.03	99.977	199.993
11.105	100.03	99.9771	199.993
11.1075	100.03	99.9772	199.993
11.11	100.03	99.9773	199.993
11.1125	100.03	99.9773	199.993
11.115	100.03	99.9774	199.993
11.1175	100.029	99.9775	199.993
11.12	100.029	99.9776	199.993
11.1225	100.029	99.9776	199.993
11.125	100.029	99.9777	199.993
11.1275	100.029	99.9778	199.993
11.13	100.029	99.9779	199.993
11.1325	100.029	99.9779	199.993
11.135	100.029	99.978	199.993
11.1375	100.029	99.9781	199.993
11.14	100.029	99.9781	199.993
11.1425	100.029	99.9782	199.993
11.145	100.029	99.9783	199.993
11.1475	100.029	99.9784	199.992
11.15	100.029	99.9784	199.992
11.1525	100.029	99.9785	199.992
11.155	100.029	99.9786	199.992
11.1575	100.029	99.9787	199.992
11.16	100.029	99.9787	199.992
11.1625	100.029	99.9788	199.992
11.165	100.029	99.9789	199.992
11.1675	100.029	99.9789	199.992
11.17	100.029	99.979	199.992
11.1725	100.029	99.9791	199.992
11.175	100.029	99.9792	199.992
11.1775	100.029	99.9792	199.992
11.18	100.029	99.9793	199.992
11.1825	100.029	99.9794	199.992
11.185	100.029	99.9794	199.992
11.1875	100.029	99.9795	199.992
11.19	100.029	99.9796	199.992
11.1925	100.029	99.9797	199.992
11.195	100.029	99.9797	199.992
11.1975	100.029	99.9798	199.992
11.2	100.029	99.9799	199.992
11.2025	100.029	99.9799	199.992
11.205	100.028	99.98	199.992
11.2075	100.028	99.9801	199.991
11.21	100.028	99.9802	199.991
11.2125	100.028	99.9802	199.991
11.215	100.028	99.9803	199.991
11.2175	100.028	99.9804	199.991
11.22	100.028	99.9804	199.991
11.2225	100.028	99.9805	199.991
11.225	100.028	99.9806	199.991
11.2275	100.028	99.9807	199.991
11.23	100.028	99.9807	199.991
11.2325	100.028	99.9808	199.991
11.235	100.028	99.9809	199.991
11.2375	100.028	99.9809	199.991
11.24	100.028	99.981	199.991
11.2425	100.028	99.9811	199.991
11.245	100.028	99.9811	199.991
11.2475	100.028	99.9812	199.991
11.25	100.028	99.9813	199.991
11.2525	100.028	99.9814	199.991
11.255	100.028	99.9814	199.991
11.2575	100.028	99.9815	199.991
11.26	100.028	99.9816	199.991
11.2625	100.028	99.9816	199.991
11.265	100.028	99.9817	199.991
11.2675	100.028	99.9818	199.991
11.27	100.028	99.9818	199.991
11.2725	100.028	99.9819	199.991
11.275	100.028	99.982	199.99
11.2775	100.027	99.982	199.99
11.28	100.027	99.9821	199.99
11.2825	100.027	99.9822	199.99
11.285	100.027	99.9823	199.99
11.2875	100.027	99.9823	199.99
11.29	100.027	99.9824	199.99
11.2925	100.027	99.9825	199.99
11.295	100.027	99.9825	199.99
11.2975	100.027	99.9826	199.99
11.3	100.027	99.9827	199.99
11.3025	100.027	99.9827	199.99
11.305	100.027	99.9828	199.99
11.3075	100.027	99.9829	199.99
11.31	100.027	99.9829	199.99
11.3125	100.027	99.983	199.99
11.315	100.027	99.9831	199.99
11.3175	100.027	99.9831	199.99
11.32	100.027	99.9832	199.99
11.3225	100.027	99.9833	199.99
11.325	100.027	99.9833	199.99
11.3275	100.027	99.9834	199.99
11.33	100.027	99.9835	199.99
11.3325	100.027	99.9835	199.99
11.335	100.027	99.9836	199.99
11.3375	100.027	99.9837	199.99
11.34	100.027	99.9837	199.99
11.3425	100.027	99.9838	199.99
11.345	100.026	99.9839	199.99
11.3475	100.026	99.9839	199.99
11.35	100.026	99.984	199.99
11.3525	100.026	99.9841	199.99
11.355	100.026	99.9841	199.99
11.3575	100.026	99.9842	199.99
11.36	100.026	99.9843	199.989
11.3625	100.026	99.9843	199.989
11.365	100.026	99.9844	199.989
11.3675	100.026	99.9845	199.989
11.37	100.026	99.9845	199.989
11.3725	100.026	99.9846	199.989
11.375	100.026	99.9847	199.989
11.3775	100.026	99.9847	199.989
11.38	100.026	99.9848	199.989
11.3825	100.026	99.9849	199.989
11.385	100.026	99.9849	199.989
11.3875	100.026	99.985	199.989
11.39	100.026	99.985	199.989
11.3925	100.026	99.9851	199.989
11.395	100.026	99.9852	199.989
11.3975	100.026	99.9852	199.989
11.4	100.026	99.9853	199.989
11.4025	100.026	99.9854	199.989
11.405	100.026	99.9854	199.989
11.4075	100.025	99.9855	199.989
11.41	100.025	99.9856	199.989
11.4125	100.025	99.9856	199.989
11.415	100.025	99.9857	199.989
11.4175	100.025	99.9857	199.989
11.42	100.025	99.9858	199.989
11.4225	100.025	99.9859	199.989
11.425	100.025	99.9859	199.989
11.4275	100.025	99.986	199.989
11.43	100.025	99.9861	199.989
11.4325	100.025	99.9861	199.989
11.435	100.025	99.9862	199.989
11.4375	100.025	99.9863	199.989
11.44	100.025	99.9863	199.989
11.4425	100.025	99.9864	199.989
11.445	100.025	99.9864	199.989
11.4475	100.025	99.9865	199.989
11.45	100.025	99.9866	199.989
11.4525	100.025	99.9866	199.989
11.455	100.025	99.9867	199.989
11.4575	100.025	99.9867	199.989
11.46	100.025	99.9868	199.989
11.4625	100.025	99.9869	199.989
11.465	100.025	99.9869	199.989
11.4675	100.024	99.987	199.989
11.47	100.024	99.9871	199.989
11.4725	100.024	99.9871	199.988
11.475	100.024	99.9872	199.988
11.4775	100.024	99.9872	199.988
11.48	100.024	99.9873	199.988
11.4825	100.024	99.9874	199.988
11.485	100.024	99.9874	199.988
11.4875	100.024	99.9875	199.988
11.49	100.024	99.9875	199.988
11.4925	100.024	99.9876	199.988
11.495	100.024	99.9877	199.988
11.4975	100.024	99.9877	199.988
11.5	100.024	99.9878	199.988
11.5025	100.024	99.9878	199.988
11.505	100.024	99.9879	199.988
11.5075	100.024	99.988	199.988
11.51	100.024	99.988	199.988
11.5125	100.024	99.9881	199.988
11.515	100.024	99.9881	199.988
11.5175	100.024	99.9882	199.988
11.52	100.024	99.9883	199.988
11.5225	100.024	99.9883	199.988
11.525	100.023	99.9884	199.988
11.5275	100.023	99.9884	199.988
11.53	100.023	99.9885	199.988
11.5325	100.023	99.9885	199.988
11.535	100.023	99.9886	199.988
11.5375	100.023	99.9887	199.988
11.54	100.023	99.9887	199.988
11.5425	100.023	99.9888	199.988
11.545	100.023	99.9888	199.988
11.5475	100.023	99.9889	199.988
11.55	100.023	99.989	199.988
11.5525	100.023	99.989	199.988
11.555	100.023	99.9891	199.988
11.5575	100.023	99.9891	199.988
11.56	100.023	99.9892	199.988
11.5625	100.023	99.9892	199.988
11.565	100.023	99.9893	199.988
11.5675	100.023	99.9894	199.988
11.57	100.023	99.9894	199.988
11.5725	100.023	99.9895	199.988
11.575	100.023	99.9895	199.988
11.5775	100.023	99.9896	199.988
11.58	100.022	99.9896	199.988
11.5825	100.022	99.9897	199.988
11.585	100.022	99.9897	199.988
11.5875	100.022	99.9898	199.988
11.59	100.022	99.9899	199.988
11.5925	100.022	99.9899	199.988
11.595	100.022	99.99	199.988
11.5975	100.022	99.99	199.988
11.6	100.022	99.9901	199.988
11.6025	100.022	99.9901	199.988
11.605	100.022	99.9902	199.988
11.6075	100.022	99.9902	199.988
11.61	100.022	99.9903	199.988
11.6125	100.022	99.9904	199.988
11.615	100.022	99.9904	199.988
11.6175	100.022	99.9905	199.988
11.62	100.022	99.9905	199.988
11.6225	100.022	99.9906	199.988
11.625	100.022	99.9906	199.988
11.6275	100.022	99.9907	199.988
11.63	100.022	99.9907	199.988
11.6325	100.022	99.9908	199.988
11.635	100.021	99.9908	199.988
11.6375	100.021	99.9909	199.988
11.64	100.021	99.991	199.988
11.6425	100.021	99.991	199.988
11.645	100.021	99.9911	199.988
11.6475	100.021	99.9911	199.988
11.65	100.021	99.9912	199.988
11.6525	100.021	99.9912	199.988
11.655	100.021	99.9913	199.988
11.6575	100.021	99.9913	199.988
11.66	100.021	99.9914	199.988
11.6625	100.021	99.9914	199.988
11.665	100.021	99.9915	199.988
11.6675	100.021	99.9915	199.988
11.67	100.021	99.9916	199.988
11.6725	100.021	99.9916	199.988
11.675	100.021	99.9917	199.988
11.6775	100.021	99.9917	199.988
11.68	100.021	99.9918	199.988
11.6825	100.021	99.9918	199.988
11.685	100.021	99.9919	199.988
11.6875	100.02	99.9919	199.988
11.69	100.02	99.992	199.988
11.6925	100.02	99.992	199.988
11.695	100.02	99.9921	199.988
11.6975	100.02	99.9922	199.988
11.7	100.02	99.9922	199.988
11.7025	100.02	99.9923	199.988
11.705	100.02	99.9923	199.988
11.7075	100.02	99.9924	199.988
11.71	100.02	99.9924	199.988
11.7125	100.02	99.9925	199.988
11.715	100.02	99.9925	199.988
11.7175	100.02	99.9926	199.988
11.72	100.02	99.9926	199.988
11.7225	100.02	99.9927	199.988
11.725	100.02	99.9927	199.988
11.7275	100.02	99.9928	199.987
11.73	100.02	99.9928	199.987
11.7325	100.02	99.9929	199.987
11.735	100.02	99.9929	199.987
11.7375	100.02	99.9929	199.987
11.74	100.02	99.993	199.987
11.7425	100.019	99.993	199.987
11.745	100.019	99.9931	199.987
11.7475	100.019	99.9931	199.987
11.75	100.019	99.9932	199.987
11.7525	100.019	99.9932	199.987
11.755	100.019	99.9933	199.987
11.7575	100.019	99.9933	199.987
11.76	100.019	99.9934	199.987
11.7625	100.019	99.9934	199.987
11.765	100.019	99.9935	199.987
11.7675	100.019	99.9935	199.987
11.77	100.019	99.9936	199.987
11.7725	100.019	99.9936	199.987
11.775	100.019	99.9937	199.987
11.7775	100.019	99.9937	199.987
11.78	100.019	99.9938	199.987
11.7825	100.019	99.9938	199.987
11.785	100.019	99.9939	199.987
11.7875	100.019	99.9939	199.987
11.79	100.019	99.9939	199.987
11.7925	100.019	99.994	199.987
11.795	100.018	99.994	199.987
11.7975	100.018	99.9941	199.987
11.8	100.018	99.9941	199.987
11.8025	100.018	99.9942	199.987
11.805	100.018	99.9942	199.987
11.8075	100.018	99.9943	199.987
11.81	100.018	99.9943	199.987
11.8125	100.018	99.9944	199.987
11.815	100.018	99.9944	199.987
11.8175	100.018	99.9945	199.987
11.82	100.018	99.9945	199.987
11.8225	100.018	99.9945	199.987
11.825	100.018	99.9946	199.987
11.8275	100.018	99.9946	199.987
11.83	100.018	99.9947	199.987
11.8325	100.018	99.9947	199.988
11.835	100.018	99.9948	199.988
11.8375	100.018	99.9948	199.988
11.84	100.018	99.9949	199.988
11.8425	100.018	99.9949	199.988
11.845	100.018	99.9949	199.988
11.8475	100.017	99.995	199.988
11.85	100.017	99.995	199.988
11.8525	100.017	99.9951	199.988
11.855	100.017	99.9951	199.988
11.8575	100.017	99.9952	199.988
11.86	100.017	99.9952	199.988
11.8625	100.017	99.9952	199.988
11.865	100.017	99.9953	199.988
11.8675	100.017	99.9953	199.988
11.87	100.017	99.9954	199.988
11.8725	100.017	99.9954	199.988
11.875	100.017	99.9955	199.988
11.8775	100.017	99.9955	199.988
11.88	100.017	99.9955	199.988
11.8825	100.017	99.9956	199.988
11.885	100.017	99.9956	199.988
11.8875	100.017	99.9957	199.988
11.89	100.017	99.9957	199.988
11.8925	100.017	99.9958	199.988
11.895	100.017	99.9958	199.988
11.8975	100.017	99.9958	199.988
11.9	100.017	99.9959	199.988
11.9025	100.016	99.9959	199.988
11.905	100.016	99.996	199.988
11.9075	100.016	99.996	199.988
11.91	100.016	99.996	199.988
11.9125	100.016	99.9961	199.988
11.915	100.016	99.9961	199.988
11.9175	100.016	99.9962	199.988
11.92	100.016	99.9962	199.988
11.9225	100.016	99.9962	199.988
11.925	100.016	99.9963	199.988
11.9275	100.016	99.9963	199.988
11.93	100.016	99.9964	199.988
11.9325	100.016	99.9964	199.988
11.935	100.016	99.9964	199.988
11.9375	100.016	99.9965	199.988
11.94	100.016	99.9965	199.988
11.9425	100.016	99.9966	199.988
11.945	100.016	99.9966	199.988
11.9475	100.016	99.9966	199.988
11.95	100.016	99.9967	199.988
11.9525	100.016	99.9967	199.988
11.955	100.015	99.9968	199.988
11.9575	100.015	99.9968	199.988
11.96	100.015	99.9968	199.988
11.9625	100.015	99.9969	199.988
11.965	100.015	99.9969	199.988
11.9675	100.015	99.997	199.988
11.97	100.015	99.997	199.988
11.9725	100.015	99.997	199.988
11.975	100.015	99.9971	199.988
11.9775	100.015	99.9971	199.988
11.98	100.015	99.9971	199.988
11.9825	100.015	99.9972	199.988
11.985	100.015	99.9972	199.988
11.9875	100.015	99.9973	199.988
11.99	100.015	99.9973	199.988
11.9925	100.015	99.9973	199.988
11.995	100.015	99.9974	199.988
11.9975	100.015	99.9974	199.988
12	100.015	99.9974	199.988
12.0025	100.015	99.9975	199.988
12.005	100.015	99.9975	199.988
12.0075	100.015	99.9975	199.988
12.01	100.014	99.9976	199.988
12.0125	100.014	99.9976	199.988
12.015	100.014	99.9977	199.988
12.0175	100.014	99.9977	199.988
12.02	100.014	99.9977	199.988
12.0225	100.014	99.9978	199.988
12.025	100.014	99.9978	199.988
12.0275	100.014	99.9978	199.988
12.03	100.014	99.9979	199.988
12.0325	100.014	99.9979	199.988
12.035	100.014	99.9979	199.988
12.0375	100.014	99.998	199.988
12.04	100.014	99.998	199.988
12.0425	100.014	99.998	199.988
12.045	100.014	99.9981	199.988
12.0475	100.014	99.9981	199.988
12.05	100.014	99.9981	199.988
12.0525	100.014	99.9982	199.988
12.055	100.014	99.9982	199.988
12.0575	100.014	99.9983	199.988
12.06	100.014	99.9983	199.988
12.0625	100.014	99.9983	199.988
12.065	100.014	99.9984	199.988
12.0675	100.013	99.9984	199.988
12.07	100.013	99.9984	199.988
12.0725	100.013	99.9985	199.988
12.075	100.013	99.9985	199.988
12.0775	100.013	99.9985	199.988
12.08	100.013	99.9986	199.988
12.0825	100.013	99.9986	199.988
12.085	100.013	99.9986	199.988
12.0875	100.013	99.9987	199.988
12.09	100.013	99.9987	199.988
12.0925	100.013	99.9987	199.988
12.095	100.013	99.9988	199.988
12.0975	100.013	99.9988	199.988
12.1	100.013	99.9988	199.988
12.1025	100.013	99.9988	199.988
12.105	100.013	99.9989	199.988
12.1075	100.013	99.9989	199.988
12.11	100.013	99.9989	199.988
12.1125	100.013	99.999	199.988
12.115	100.013	99.999	199.988
12.1175	100.013	99.999	199.988
12.12	100.013	99.9991	199.988
12.1225	100.012	99.9991	199.988
12.125	100.012	99.9991	199.988
12.1275	100.012	99.9992	199.988
12.13	100.012	99.9992	199.988
12.1325	100.012	99.9992	199.988
12.135	100.012	99.9993	199.988
12.1375	100.012	99.9993	199.988
12.14	100.012	99.9993	199.988
12.1425	100.012	99.9993	199.989
12.145	100.012	99.9994	199.989
12.1475	100.012	99.9994	199.989
12.15	100.012	99.9994	199.989
12.1525	100.012	99.9995	199.989
12.155	100.012	99.9995	199.989
12.1575	100.012	99.9995	199.989
12.16	100.012	99.9996	199.989
12.1625	100.012	99.9996	199.989
12.165	100.012	99.9996	199.989
12.1675	100.012	99.9996	199.989
12.17	100.012	99.9997	199.989
12.1725	100.012	99.9997	199.989
12.175	100.012	99.9997	199.989
12.1775	100.012	99.9998	199.989
12.18	100.012	99.9998	199.989
12.1825	100.011	99.9998	199.989
12.185	100.011	99.9998	199.989
12.1875	100.011	99.9999	199.989
12.19	100.011	99.9999	199.989
12.1925	100.011	99.9999	199.989
12.195	100.011	100	199.989
12.1975	100.011	100	199.989
12.2	100.011	100	199.989
12.2025	100.011	100	199.989
12.205	100.011	100	199.989
12.2075	100.011	100	199.989
12.21	100.011	100	199.989
12.2125	100.011	100	199.989
12.215	100.011	100	199.989
12.2175	100.011	100	199.989
12.22	100.011	100	199.989
12.2225	100.011	100	199.989
12.225	100.011	100	199.989
12.2275	100.011	100	199.989
12.23	100.011	100	199.989
12.2325	100.011	100	199.989
12.235	100.011	100	199.989
12.2375	100.011	100	199.989
12.24	100.011	100	199.989
12.2425	100.01	100	199.989
12.245	100.01	100.001	199.989
12.2475	100.01	100.001	199.989
12.25	100.01	100.001	199.989
12.2525	100.01	100.001	199.989
12.255	100.01	100.001	199.989
12.2575	100.01	100.001	199.989
12.26	100.01	100.001	199.989
12.2625	100.01	100.001	199.989
12.265	100.01	100.001	199.989
12.2675	100.01	100.001	199.989
12.27	100.01	100.001	199.989
12.2725	100.01	100.001	199.989
12.275	100.01	100.001	199.989
12.2775	100.01	100.001	199.989
12.28	100.01	100.001	199.989
12.2825	100.01	100.001	199.989
12.285	100.01	100.001	199.989
12.2875	100.01	100.001	199.989
12.29	100.01	100.001	199.989
12.2925	100.01	100.001	199.989
12.295	100.01	100.001	199.989
12.2975	100.01	100.001	199.989
12.3	100.01	100.001	199.989
12.3025	100.009	100.001	199.989
12.305	100.009	100.001	199.989
12.3075	100.009	100.001	199.989
12.31	100.009	100.001	199.989
12.3125	100.009	100.001	199.989
12.315	100.009	100.001	199.99
12.3175	100.009	100.001	199.99
12.32	100.009	100.001	199.99
12.3225	100.009	100.001	199.99
12.325	100.009	100.001	199.99
12.3275	100.009	100.001	199.99
12.33	100.009	100.001	199.99
12.3325	100.009	100.001	199.99
12.335	100.009	100.001	199.99
12.3375	100.009	100.001	199.99
12.34	100.009	100.001	199.99
12.3425	100.009	100.001	199.99
12.345	100.009	100.001	199.99
12.3475	100.009	100.001	199.99
12.35	100.009	100.002	199.99
12.3525	100.009	100.002	199.99
12.355	100.009	100.002	199.99
12.3575	100.009	100.002	199.99
12.36	100.009	100.002	199.99
12.3625	100.009	100.002	199.99
12.365	100.009	100.002	199.99
12.3675	100.008	100.002	199.99
12.37	100.008	100.002	199.99
12.3725	100.008	100.002	199.99
12.375	100.008	100.002	199.99
12.3775	100.008	100.002	199.99
12.38	100.008	100.002	199.99
12.3825	100.008	100.002	199.99
12.385	100.008	100.002	199.99
12.3875	100.008	100.002	199.99
12.39	100.008	100.002	199.99
12.3925	100.008	100.002	199.99
12.395	100.008	100.002	199.99
12.3975	100.008	100.002	199.99
12.4	100.008	100.002	199.99
12.4025	100.008	100.002	199.99
12.405	100.008	100.002	199.99
12.4075	100.008	100.002	199.99
12.41	100.008	100.002	199.99
12.4125	100.008	100.002	199.99
12.415	100.008	100.002	199.99
12.4175	100.008	100.002	199.99
12.42	100.008	100.002	199.99
12.4225	100.008	100.002	199.99
12.425	100.008	100.002	199.99
12.4275	100.008	100.002	199.99
12.43	100.008	100.002	199.99
12.4325	100.008	100.002	199.99
12.435	100.007	100.002	199.99
12.4375	100.007	100.002	199.99
12.44	100.007	100.002	199.99
12.4425	100.007	100.002	199.99
12.445	100.007	100.002	199.99
12.4475	100.007	100.002	199.99
12.45	100.007	100.002	199.99
12.4525	100.007	100.002	199.99
12.455	100.007	100.002	199.99
12.4575	100.007	100.002	199.99
12.46	100.007	100.002	199.99
12.4625	100.007	100.002	199.991
12.465	100.007	100.002	199.991
12.4675	100.007	100.002	199.991
12.47	100.007	100.002	199.991
12.4725	100.007	100.002	199.991
12.475	100.007	100.002	199.991
12.4775	100.007	100.003	199.991
12.48	100.007	100.003	199.991
12.4825	100.007	100.003	199.991
12.485	100.007	100.003	199.991
12.4875	100.007	100.003	199.991
12.49	100.007	100.003	199.991
12.4925	100.007	100.003	199.991
12.495	100.007	100.003	199.991
12.4975	100.007	100.003	199.991
12.5	100.007	100.003	199.991
12.5025	100.007	100.003	199.991
12.505	100.006	100.003	199.991
12.5075	100.006	100.003	199.991
12.51	100.006	100.003	199.991
12.5125	100.006	100.003	199.991
12.515	100.006	100.003	199.991
12.5175	100.006	100.003	199.991
12.52	100.006	100.003	199.991
12.5225	100.006	100.003	199.991
12.525	100.006	100.003	199.991
12.5275	100.006	100.003	199.991
12.53	100.006	100.003	199.991
12.5325	100.006	100.003	199.991
12.535	100.006	100.003	199.991
12.5375	100.006	100.003	199.991
12.54	100.006	100.003	199.991
12.5425	100.006	100.003	199.991
12.545	100.006	100.003	199.991
12.5475	100.006	100.003	199.991
12.55	100.006	100.003	199.991
12.5525	100.006	100.003	199.991
12.555	100.006	100.003	199.991
12.5575	100.006	100.003	199.991
12.56	100.006	100.003	199.991
12.5625	100.006	100.003	199.991
12.565	100.006	100.003	199.991
12.5675	100.006	100.003	199.991
12.57	100.006	100.003	199.991
12.5725	100.006	100.003	199.991
12.575	100.006	100.003	199.991
12.5775	100.006	100.003	199.991
12.58	100.005	100.003	199.991
12.5825	100.005	100.003	199.991
12.585	100.005	100.003	199.991
12.5875	100.005	100.003	199.991
12.59	100.005	100.003	199.991
12.5925	100.005	100.003	199.991
12.595	100.005	100.003	199.991
12.5975	100.005	100.003	199.992
12.6	100.005	100.003	199.992
12.6025	100.005	100.003	199.992
12.605	100.005	100.003	199.992
12.6075	100.005	100.003	199.992
12.61	100.005	100.003	199.992
12.6125	100.005	100.003	199.992
12.615	100.005	100.003	199.992
12.6175	100.005	100.003	199.992
12.62	100.005	100.003	199.992
12.6225	100.005	100.003	199.992
12.625	100.005	100.003	199.992
12.6275	100.005	100.003	199.992
12.63	100.005	100.003	199.992
12.6325	100.005	100.003	199.992
12.635	100.005	100.003	199.992
12.6375	100.005	100.003	199.992
12.64	100.005	100.003	199.992
12.6425	100.005	100.003	199.992
12.645	100.005	100.003	199.992
12.6475	100.005	100.003	199.992
12.65	100.005	100.003	199.992
12.6525	100.005	100.004	199.992
12.655	100.005	100.004	199.992
12.6575	100.005	100.004	199.992
12.66	100.004	100.004	199.992
12.6625	100.004	100.004	199.992
12.665	100.004	100.004	199.992
12.6675	100.004	100.004	199.992
12.67	100.004	100.004	199.992
12.6725	100.004	100.004	199.992
12.675	100.004	100.004	199.992
12.6775	100.004	100.004	199.992
12.68	100.004	100.004	199.992
12.6825	100.004	100.004	199.992
12.685	100.004	100.004	199.992
12.6875	100.004	100.004	199.992
12.69	100.004	100.004	199.992
12.6925	100.004	100.004	199.992
12.695	100.004	100.004	199.992
12.6975	100.004	100.004	199.992
12.7	100.004	100.004	199.992
12.7025	100.004	100.004	199.992
12.705	100.004	100.004	199.992
12.7075	100.004	100.004	199.992
12.71	100.004	100.004	199.992
12.7125	100.004	100.004	199.992
12.715	100.004	100.004	199.992
12.7175	100.004	100.004	199.992
12.72	100.004	100.004	199.992
12.7225	100.004	100.004	199.992
12.725	100.004	100.004	199.992
12.7275	100.004	100.004	199.992
12.73	100.004	100.004	199.993
12.7325	100.004	100.004	199.993
12.735	100.004	100.004	199.993
12.7375	100.004	100.004	199.993
12.74	100.004	100.004	199.993
12.7425	100.004	100.004	199.993
12.745	100.004	100.004	199.993
12.7475	100.003	100.004	199.993
12.75	100.003	100.004	199.993
12.7525	100.003	100.004	199.993
12.755	100.003	100.004	199.993
12.7575	100.003	100.004	199.993
12.76	100.003	100.004	199.993
12.7625	100.003	100.004	199.993
12.765	100.003	100.004	199.993
12.7675	100.003	100.004	199.993
12.77	100.003	100.004	199.993
12.7725	100.003	100.004	199.993
12.775	100.003	100.004	199.993
12.7775	100.003	100.004	199.993
12.78	100.003	100.004	199.993
12.7825	100.003	100.004	199.993
12.785	100.003	100.004	199.993
12.7875	100.003	100.004	199.993
12.79	100.003	100.004	199.993
12.7925	100.003	100.004	199.993
12.795	100.003	100.004	199.993
12.7975	100.003	100.004	199.993
12.8	100.003	100.004	199.993
12.8025	100.003	100.004	199.993
12.805	100.003	100.004	199.993
12.8075	100.003	100.004	199.993
12.81	100.003	100.004	199.993
12.8125	100.003	100.004	199.993
12.815	100.003	100.004	199.993
12.8175	100.003	100.004	199.993
12.82	100.003	100.004	199.993
12.8225	100.003	100.004	199.993
12.825	100.003	100.004	199.993
12.8275	100.003	100.004	199.993
12.83	100.003	100.004	199.993
12.8325	100.003	100.004	199.993
12.835	100.003	100.004	199.993
12.8375	100.003	100.004	199.993
12.84	100.003	100.004	199.993
12.8425	100.002	100.004	199.993
12.845	100.002	100.004	199.993
12.8475	100.002	100.004	199.993
12.85	100.002	100.004	199.993
12.8525	100.002	100.004	199.993
12.855	100.002	100.004	199.993
12.8575	100.002	100.004	199.993
12.86	100.002	100.004	199.993
12.8625	100.002	100.004	199.994
12.865	100.002	100.004	199.994
12.8675	100.002	100.004	199.994
12.87	100.002	100.004	199.994
12.8725	100.002	100.004	199.994
12.875	100.002	100.004	199.994
12.8775	100.002	100.004	199.994
12.88	100.002	100.004	199.994
12.8825	100.002	100.004	199.994
12.885	100.002	100.004	199.994
12.8875	100.002	100.004	199.994
12.89	100.002	100.004	199.994
12.8925	100.002	100.004	199.994
12.895	100.002	100.004	199.994
12.8975	100.002	100.004	199.994
12.9	100.002	100.004	199.994
12.9025	100.002	100.004	199.994
12.905	100.002	100.004	199.994
12.9075	100.002	100.004	199.994
12.91	100.002	100.004	199.994
12.9125	100.002	100.004	199.994
12.915	100.002	100.004	199.994
12.9175	100.002	100.004	199.994
12.92	100.002	100.004	199.994
12.9225	100.002	100.004	199.994
12.925	100.002	100.004	199.994
12.9275	100.002	100.004	199.994
12.93	100.002	100.004	199.994
12.9325	100.002	100.004	199.994
12.935	100.002	100.004	199.994
12.9375	100.002	100.004	199.994
12.94	100.002	100.004	199.994
12.9425	100.002	100.004	199.994
12.945	100.002	100.004	199.994
12.9475	100.001	100.004	199.994
12.95	100.001	100.004	199.994
12.9525	100.001	100.004	199.994
12.955	100.001	100.004	199.994
12.9575	100.001	100.004	199.994
12.96	100.001	100.004	199.994
12.9625	100.001	100.004	199.994
12.965	100.001	100.004	199.994
12.9675	100.001	100.004	199.994
12.97	100.001	100.004	199.994
12.9725	100.001	100.004	199.994
12.975	100.001	100.004	199.994
12.9775	100.001	100.004	199.994
12.98	100.001	100.004	199.994
12.9825	100.001	100.004	199.994
12.985	100.001	100.004	199.994
12.9875	100.001	100.004	199.994
12.99	100.001	100.004	199.994
12.9925	100.001	100.004	199.994
12.995	100.001	100.004	199.994
12.9975	100.001	100.004	199.994
13	100.001	100.004	199.995
13.0025	100.001	100.004	199.995
13.005	100.001	100.004	199.995
13.0075	100.001	100.004	199.995
13.01	100.001	100.004	199.995
13.0125	100.001	100.004	199.995
13.015	100.001	100.004	199.995
13.0175	100.001	100.004	199.995
13.02	100.001	100.004	199.995
13.0225	100.001	100.004	199.995
13.025	100.001	100.004	199.995
13.0275	100.001	100.004	199.995
13.03	100.001	100.004	199.995
13.0325	100.001	100.004	199.995
13.035	100.001	100.004	199.995
13.0375	100.001	100.004	199.995
13.04	100.001	100.004	199.995
13.0425	100.001	100.004	199.995
13.045	100.001	100.004	199.995
13.0475	100.001	100.004	199.995
13.05	100.001	100.004	199.995
13.0525	100.001	100.004	199.995
13.055	100.001	100.004	199.995
13.0575	100.001	100.004	199.995
13.06	100.001	100.004	199.995
13.0625	100.001	100.004	199.995
13.065	100.001	100.004	199.995
13.0675	100.001	100.004	199.995
13.07	100	100.004	199.995
13.0725	100	100.004	199.995
13.075	100	100.004	199.995
13.0775	100	100.004	199.995
13.08	100	100.004	199.995
13.0825	100	100.005	199.995
13.085	100	100.005	199.995
13.0875	100	100.005	199.995
13.09	100	100.005	199.995
13.0925	100	100.005	199.995
13.095	100	100.005	199.995
13.0975	100	100.005	199.995
13.1	100	100.005	199.995
13.1025	100	100.005	199.995
13.105	100	100.005	199.995
13.1075	100	100.005	199.995
13.11	100	100.005	199.995
13.1125	100	100.005	199.995
13.115	100	100.005	199.995
13.1175	100	100.005	199.995
13.12	100	100.005	199.995
13.1225	100	100.005	199.995
13.125	100	100.005	199.995
13.1275	100	100.005	199.995
13.13	100	100.005	199.995
13.1325	100	100.005	199.995
13.135	100	100.005	199.995
13.1375	100	100.005	199.995
13.14	100	100.005	199.995
13.1425	100	100.005	199.996
13.145	100	100.005	199.996
13.1475	99.9999	100.005	199.996
13.15	99.9999	100.005	199.996
13.1525	99.9999	100.005	199.996
13.155	99.9999	100.005	199.996
13.1575	99.9999	100.005	199.996
13.16	99.9999	100.005	199.996
13.1625	99.9999	100.005	199.996
13.165	99.9998	100.005	199.996
13.1675	99.9998	100.005	199.996
13.17	99.9998	100.005	199.996
13.1725	99.9998	100.005	199.996
13.175	99.9998	100.005	199.996
13.1775	99.9998	100.005	199.996
13.18	99.9997	100.005	199.996
13.1825	99.9997	100.005	199.996
13.185	99.9997	100.005	199.996
13.1875	99.9997	100.005	199.996
13.19	99.9997	100.005	199.996
13.1925	99.9997	100.005	199.996
13.195	99.9996	100.005	199.996
13.1975	99.9996	100.005	199.996
13.2	99.9996	100.005	199.996
13.2025	99.9996	100.004	199.996
13.205	99.9996	100.004	199.996
13.2075	99.9996	100.004	199.996
13.21	99.9996	100.004	199.996
13.2125	99.9995	100.004	199.996
13.215	99.9995	100.004	199.996
13.2175	99.9995	100.004	199.996
13.22	99.9995	100.004	199.996
13.2225	99.9995	100.004	199.996
13.225	99.9995	100.004	199.996
13.2275	99.9994	100.004	199.996
13.23	99.9994	100.004	199.996
13.2325	99.9994	100.004	199.996
13.235	99.9994	100.004	199.996
13.2375	99.9994	100.004	199.996
13.24	99.9994	100.004	199.996
13.2425	99.9994	100.004	199.996
13.245	99.9993	100.004	199.996
13.2475	99.9993	100.004	199.996
13.25	99.9993	100.004	199.996
13.2525	99.9993	100.004	199.996
13.255	99.9993	100.004	199.996
13.2575	99.9993	100.004	199.996
13.26	99.9993	100.004	199.996
13.2625	99.9992	100.004	199.996
13.265	99.9992	100.004	199.996
13.2675	99.9992	100.004	199.996
13.27	99.9992	100.004	199.996
13.2725	99.9992	100.004	199.996
13.275	99.9992	100.004	199.996
13.2775	99.9992	100.004	199.996
13.28	99.9991	100.004	199.996
13.2825	99.9991	100.004	199.996
13.285	99.9991	100.004	199.996
13.2875	99.9991	100.004	199.996
13.29	99.9991	100.004	199.996
13.2925	99.9991	100.004	199.996
13.295	99.9991	100.004	199.996
13.2975	99.9991	100.004	199.997
13.3	99.999	100.004	199.997
13.3025	99.999	100.004	199.997
13.305	99.999	100.004	199.997
13.3075	99.999	100.004	199.997
13.31	99.999	100.004	199.997
13.3125	99.999	100.004	199.997
13.315	99.999	100.004	199.997
13.3175	99.999	100.004	199.997
13.32	99.9989	100.004	199.997
13.3225	99.9989	100.004	199.997
13.325	99.9989	100.004	199.997
13.3275	99.9989	100.004	199.997
13.33	99.9989	100.004	199.997
13.3325	99.9989	100.004	199.997
13.335	99.9989	100.004	199.997
13.3375	99.9989	100.004	199.997
13.34	99.9988	100.004	199.997
13.3425	99.9988	100.004	199.997
13.345	99.9988	100.004	199.997
13.3475	99.9988	100.004	199.997
13.35	99.9988	100.004	199.997
13.3525	99.9988	100.004	199.997
13.355	99.9988	100.004	199.997
13.3575	99.9988	100.004	199.997
13.36	99.9987	100.004	199.997
13.3625	99.9987	100.004	199.997
13.365	99.9987	100.004	199.997
13.3675	99.9987	100.004	199.997
13.37	99.9987	100.004	199.997
13.3725	99.9987	100.004	199.997
13.375	99.9987	100.004	199.997
13.3775	99.9987	100.004	199.997
13.38	99.9987	100.004	199.997
13.3825	99.9986	100.004	199.997
13.385	99.9986	100.004	199.997
13.3875	99.9986	100.004	199.997
13.39	99.9986	100.004	199.997
13.3925	99.9986	100.004	199.997
13.395	99.9986	100.004	199.997
13.3975	99.9986	100.004	199.997
13.4	99.9986	100.004	199.997
13.4025	99.9986	100.004	199.997
13.405	99.9985	100.004	199.997
13.4075	99.9985	100.004	199.997
13.41	99.9985	100.004	199.997
13.4125	99.9985	100.004	199.997
13.415	99.9985	100.004	199.997
13.4175	99.9985	100.004	199.997
13.42	99.9985	100.004	199.997
13.4225	99.9985	100.004	199.997
13.425	99.9985	100.004	199.997
13.4275	99.9985	100.004	199.997
13.43	99.9984	100.004	199.997
13.4325	99.9984	100.004	199.997
13.435	99.9984	100.004	199.997
13.4375	99.9984	100.004	199.997
13.44	99.9984	100.004	199.997
13.4425	99.9984	100.004	199.997
13.445	99.9984	100.004	199.997
13.4475	99.9984	100.004	199.997
13.45	99.9984	100.004	199.997
13.4525	99.9984	100.004	199.997
13.455	99.9983	100.004	199.997
13.4575	99.9983	100.004	199.997
13.46	99.9983	100.004	199.997
13.4625	99.9983	100.004	199.997
13.465	99.9983	100.004	199.997
13.4675	99.9983	100.004	199.997
13.47	99.9983	100.004	199.998
13.4725	99.9983	100.004	199.998
13.475	99.9983	100.004	199.998
13.4775	99.9983	100.004	199.998
13.48	99.9982	100.004	199.998
13.4825	99.9982	100.004	199.998
13.485	99.9982	100.004	199.998
13.4875	99.9982	100.004	199.998
13.49	99.9982	100.004	199.998
13.4925	99.9982	100.004	199.998
13.495	99.9982	100.004	199.998
13.4975	99.9982	100.004	199.998
13.5	99.9982	100.004	199.998
13.5025	99.9982	100.004	199.998
13.505	99.9982	100.004	199.998
13.5075	99.9982	100.004	199.998
13.51	99.9981	100.004	199.998
13.5125	99.9981	100.004	199.998
13.515	99.9981	100.004	199.998
13.5175	99.9981	100.004	199.998
13.52	99.9981	100.004	199.998
13.5225	99.9981	100.004	199.998
13.525	99.9981	100.004	199.998
13.5275	99.9981	100.004	199.998
13.53	99.9981	100.004	199.998
13.5325	99.9981	100.004	199.998
13.535	99.9981	100.004	199.998
13.5375	99.9981	100.004	199.998
13.54	99.998	100.004	199.998
13.5425	99.998	100.004	199.998
13.545	99.998	100.004	199.998
13.5475	99.998	100.004	199.998
13.55	99.998	100.004	199.998
13.5525	99.998	100.004	199.998
13.555	99.998	100.004	199.998
13.5575	99.998	100.004	199.998
13.56	99.998	100.004	199.998
13.5625	99.998	100.004	199.998
13.565	99.998	100.004	199.998
13.5675	99.998	100.004	199.998
13.57	99.998	100.004	199.998
13.5725	99.9979	100.004	199.998
13.575	99.9979	100.004	199.998
13.5775	99.9979	100.004	199.998
13.58	99.9979	100.004	199.998
13.5825	99.9979	100.004	199.998
13.585	99.9979	100.004	199.998
13.5875	99.9979	100.004	199.998
13.59	99.9979	100.004	199.998
13.5925	99.9979	100.004	199.998
13.595	99.9979	100.004	199.998
13.5975	99.9979	100.004	199.998
13.6	99.9979	100.004	199.998
13.6025	99.9979	100.004	199.998
13.605	99.9979	100.004	199.998
13.6075	99.9978	100.004	199.998
13.61	99.9978	100.004	199.998
13.6125	99.9978	100.004	199.998
13.615	99.9978	100.004	199.998
13.6175	99.9978	100.004	199.998
13.62	99.9978	100.004	199.998
13.6225	99.9978	100.004	199.998
13.625	99.9978	100.004	199.998
13.6275	99.9978	100.004	199.998
13.63	99.9978	100.004	199.998
13.6325	99.9978	100.004	199.998
13.635	99.9978	100.004	199.998
13.6375	99.9978	100.004	199.998
13.64	99.9978	100.004	199.998
13.6425	99.9978	100.004	199.998
13.645	99.9978	100.004	199.998
13.6475	99.9977	100.004	199.998
13.65	99.9977	100.004	199.998
13.6525	99.9977	100.004	199.998
13.655	99.9977	100.004	199.998
13.6575	99.9977	100.004	199.998
13.66	99.9977	100.004	199.998
13.6625	99.9977	100.004	199.998
13.665	99.9977	100.004	199.998
13.6675	99.9977	100.004	199.999
13.67	99.9977	100.004	199.999
13.6725	99.9977	100.004	199.999
13.675	99.9977	100.004	199.999
13.6775	99.9977	100.004	199.999
13.68	99.9977	100.004	199.999
13.6825	99.9977	100.004	199.999
13.685	99.9977	100.004	199.999
13.6875	99.9977	100.004	199.999
13.69	99.9977	100.004	199.999
13.6925	99.9976	100.004	199.999
13.695	99.9976	100.004	199.999
13.6975	99.9976	100.004	199.999
13.7	99.9976	100.004	199.999
13.7025	99.9976	100.004	199.999
13.705	99.9976	100.004	199.999
13.7075	99.9976	100.004	199.999
13.71	99.9976	100.004	199.999
13.7125	99.9976	100.004	199.999
13.715	99.9976	100.004	199.999
13.7175	99.9976	100.004	199.999
13.72	99.9976	100.004	199.999
13.7225	99.9976	100.004	199.999
13.725	99.9976	100.004	199.999
13.7275	99.9976	100.004	199.999
13.73	99.9976	100.004	199.999
13.7325	99.9976	100.004	199.999
13.735	99.9976	100.004	199.999
13.7375	99.9976	100.004	199.999
13.74	99.9976	100.004	199.999
13.7425	99.9975	100.004	199.999
13.745	99.9975	100.004	199.999
13.7475	99.9975	100.004	199.999
13.75	99.9975	100.004	199.999
13.7525	99.9975	100.004	199.999
13.755	99.9975	100.004	199.999
13.7575	99.9975	100.004	199.999
13.76	99.9975	100.004	199.999
13.7625	99.9975	100.004	199.999
13.765	99.9975	100.004	199.999
13.7675	99.9975	100.004	199.999
13.77	99.9975	100.004	199.999
13.7725	99.9975	100.004	199.999
13.775	99.9975	100.004	199.999
13.7775	99.9975	100.004	199.999
13.78	99.9975	100.004	199.999
13.7825	99.9975	100.004	199.999
13.785	99.9975	100.004	199.999
13.7875	99.9975	100.004	199.999
13.79	99.9975	100.004	199.999
13.7925	99.9975	100.003	199.999
13.795	99.9975	100.003	199.999
13.7975	99.9975	100.003	199.999
13.8	99.9975	100.003	199.999
13.8025	99.9975	100.003	199.999
13.805	99.9975	100.003	199.999
13.8075	99.9974	100.003	199.999
13.81	99.9974	100.003	199.999
13.8125	99.9974	100.003	199.999
13.815	99.9974	100.003	199.999
13.8175	99.9974	100.003	199.999
13.82	99.9974	100.003	199.999
13.8225	99.9974	100.003	199.999
13.825	99.9974	100.003	199.999
13.8275	99.9974	100.003	199.999
13.83	99.9974	100.003	199.999
13.8325	99.9974	100.003	199.999
13.835	99.9974	100.003	199.999
13.8375	99.9974	100.003	199.999
13.84	99.9974	100.003	199.999
13.8425	99.9974	100.003	199.999
13.845	99.9974	100.003	199.999
13.8475	99.9974	100.003	199.999
13.85	99.9974	100.003	199.999
13.8525	99.9974	100.003	199.999
13.855	99.9974	100.003	199.999
13.8575	99.9974	100.003	199.999
13.86	99.9974	100.003	199.999
13.8625	99.9974	100.003	199.999
13.865	99.9974	100.003	199.999
13.8675	99.9974	100.003	199.999
13.87	99.9974	100.003	199.999
13.8725	99.9974	100.003	199.999
13.875	99.9974	100.003	199.999
13.8775	99.9974	100.003	199.999
13.88	99.9974	100.003	199.999
13.8825	99.9974	100.003	199.999
13.885	99.9974	100.003	199.999
13.8875	99.9974	100.003	199.999
13.89	99.9974	100.003	199.999
13.8925	99.9974	100.003	199.999
13.895	99.9974	100.003	199.999
13.8975	99.9973	100.003	199.999
13.9	99.9973	100.003	199.999
13.9025	99.9973	100.003	199.999
13.905	99.9973	100.003	199.999
13.9075	99.9973	100.003	199.999
13.91	99.9973	100.003	199.999
13.9125	99.9973	100.003	199.999
13.915	99.9973	100.003	199.999
13.9175	99.9973	100.003	199.999
13.92	99.9973	100.003	200
13.9225	99.9973	100.003	200
13.925	99.9973	100.003	200
13.9275	99.9973	100.003	200
13.93	99.9973	100.003	200
13.9325	99.9973	100.003	200
13.935	99.9973	100.003	200
13.9375	99.9973	100.003	200
13.94	99.9973	100.003	200
13.9425	99.9973	100.003	200
13.945	99.9973	100.003	200
13.9475	99.9973	100.003	200
13.95	99.9973	100.003	200
13.9525	99.9973	100.003	200
13.955	99.9973	100.003	200
13.9575	99.9973	100.003	200
13.96	99.9973	100.003	200
13.9625	99.9973	100.003	200
13.965	99.9973	100.003	200
13.9675	99.9973	100.003	200
13.97	99.9973	100.003	200
13.9725	99.9973	100.003	200
13.975	99.9973	100.003	200
13.9775	99.9973	100.003	200
13.98	99.9973	100.003	200
13.9825	99.9973	100.003	200
13.985	99.9973	100.003	200
13.9875	99.9973	100.003	200
13.99	99.9973	100.003	200
13.9925	99.9973	100.003	200
13.995	99.9973	100.003	200
13.9975	99.9973	100.003	200
14	99.9973	100.003	200
14.0025	99.9973	100.003	200
14.005	99.9973	100.003	200
14.0075	99.9973	100.003	200
14.01	99.9973	100.003	200
14.0125	99.9973	100.003	200
14.015	99.9973	100.003	200
14.0175	99.9973	100.003	200
14.02	99.9973	100.003	200
14.0225	99.9973	100.003	200
14.025	99.9973	100.003	200
14.0275	99.9973	100.003	200
14.03	99.9973	100.003	200
14.0325	99.9973	100.003	200
14.035	99.9973	100.003	200
14.0375	99.9973	100.003	200
14.04	99.9973	100.003	200
14.0425	99.9973	100.003	200
14.045	99.9973	100.003	200
14.0475	99.9973	100.003	200
14.05	99.9973	100.003	200
14.0525	99.9973	100.003	200
14.055	99.9973	100.003	200
14.0575	99.9973	100.003	200
14.06	99.9973	100.003	200
14.0625	99.9973	100.003	200
14.065	99.9973	100.003	200
14.0675	99.9973	100.003	200
14.07	99.9973	100.003	200
14.0725	99.9973	100.003	200
14.075	99.9973	100.003	200
14.0775	99.9973	100.003	200
14.08	99.9973	100.003	200
14.0825	99.9973	100.003	200
14.085	99.9973	100.003	200
14.0875	99.9973	100.003	200
14.09	99.9973	100.003	200
14.0925	99.9973	100.003	200
14.095	99.9973	100.003	200
14.0975	99.9973	100.003	200
14.1	99.9973	100.003	200
14.1025	99.9973	100.003	200
14.105	99.9973	100.003	200
14.1075	99.9973	100.003	200
14.11	99.9973	100.003	200
14.1125	99.9973	100.003	200
14.115	99.9973	100.003	200
14.1175	99.9973	100.003	200
14.12	99.9973	100.003	200
14.1225	99.9973	100.003	200
14.125	99.9973	100.003	200
14.1275	99.9973	100.003	200
14.13	99.9973	100.003	200
14.1325	99.9973	100.003	200
14.135	99.9973	100.003	200
14.1375	99.9973	100.003	200
14.14	99.9973	100.003	200
14.1425	99.9973	100.003	200
14.145	99.9973	100.003	200
14.1475	99.9973	100.003	200
14.15	99.9973	100.003	200
14.1525	99.9973	100.003	200
14.155	99.9973	100.003	200
14.1575	99.9973	100.003	200
14.16	99.9973	100.003	200
14.1625	99.9973	100.003	200
14.165	99.9973	100.003	200
14.1675	99.9973	100.002	200
14.17	99.9973	100.002	200
14.1725	99.9973	100.002	200
14.175	99.9973	100.002	200
14.1775	99.9973	100.002	200
14.18	99.9973	100.002	200
14.1825	99.9973	100.002	200
14.185	99.9973	100.002	200
14.1875	99.9973	100.002	200
14.19	99.9973	100.002	200
14.1925	99.9973	100.002	200
14.195	99.9973	100.002	200
14.1975	99.9973	100.002	200
14.2	99.9973	100.002	200
14.2025	99.9973	100.002	200
14.205	99.9973	100.002	200
14.2075	99.9973	100.002	200
14.21	99.9973	100.002	200
14.2125	99.9973	100.002	200
14.215	99.9973	100.002	200
14.2175	99.9973	100.002	200
14.22	99.9973	100.002	200
14.2225	99.9973	100.002	200
14.225	99.9973	100.002	200
14.2275	99.9973	100.002	200
14.23	99.9973	100.002	200
14.2325	99.9973	100.002	200
14.235	99.9973	100.002	200
14.2375	99.9973	100.002	200
14.24	99.9973	100.002	200
14.2425	99.9973	100.002	200
14.245	99.9973	100.002	200
14.2475	99.9973	100.002	200
14.25	99.9973	100.002	200
14.2525	99.9973	100.002	200
14.255	99.9973	100.002	200
14.2575	99.9973	100.002	200
14.26	99.9973	100.002	200
14.2625	99.9973	100.002	200
14.265	99.9973	100.002	200
14.2675	99.9973	100.002	200
14.27	99.9973	100.002	200
14.2725	99.9973	100.002	200
14.275	99.9973	100.002	200
14.2775	99.9973	100.002	200
14.28	99.9973	100.002	200
14.2825	99.9973	100.002	200
14.285	99.9973	100.002	200
14.2875	99.9974	100.002	200
14.29	99.9974	100.002	200
14.2925	99.9974	100.002	200
14.295	99.9974	100.002	200
14.2975	99.9974	100.002	200
14.3	99.9974	100.002	200.001
14.3025	99.9974	100.002	200.001
14.305	99.9974	100.002	200.001
14.3075	99.9974	100.002	200.001
14.31	99.9974	100.002	200.001
14.3125	99.9974	100.002	200.001
14.315	99.9974	100.002	200.001
14.3175	99.9974	100.002	200.001
14.32	99.9974	100.002	200.001
14.3225	99.9974	100.002	200.001
14.325	99.9974	100.002	200.001
14.3275	99.9974	100.002	200.001
14.33	99.9974	100.002	200.001
14.3325	99.9974	100.002	200.001
14.335	99.9974	100.002	200.001
14.3375	99.9974	100.002	200.001
14.34	99.9974	100.002	200.001
14.3425	99.9974	100.002	200.001
14.345	99.9974	100.002	200.001
14.3475	99.9974	100.002	200.001
14.35	99.9974	100.002	200.001
14.3525	99.9974	100.002	200.001
14.355	99.9974	100.002	200.001
14.3575	99.9974	100.002	200.001
14.36	99.9974	100.002	200.001
14.3625	99.9974	100.002	200.001
14.365	99.9974	100.002	200.001
14.3675	99.9974	100.002	200.001
14.37	99.9974	100.002	200.001
14.3725	99.9974	100.002	200.001
14.375	99.9974	100.002	200.001
14.3775	99.9974	100.002	200.001
14.38	99.9974	100.002	200.001
14.3825	99.9974	100.002	200.001
14.385	99.9974	100.002	200.001
14.3875	99.9974	100.002	200.001
14.39	99.9974	100.002	200.001
14.3925	99.9974	100.002	200.001
14.395	99.9974	100.002	200.001
14.3975	99.9974	100.002	200.001
14.4	99.9974	100.002	200.001
14.4025	99.9975	100.002	200.001
14.405	99.9975	100.002	200.001
14.4075	99.9975	100.002	200.001
14.41	99.9975	100.002	200.001
14.4125	99.9975	100.002	200.001
14.415	99.9975	100.002	200.001
14.4175	99.9975	100.002	200.001
14.42	99.9975	100.002	200.001
14.4225	99.9975	100.002	200.001
14.425	99.9975	100.002	200.001
14.4275	99.9975	100.002	200.001
14.43	99.9975	100.002	200.001
14.4325	99.9975	100.002	200.001
14.435	99.9975	100.002	200.001
14.4375	99.9975	100.002	200.001
14.44	99.9975	100.002	200.001
14.4425	99.9975	100.002	200.001
14.445	99.9975	100.002	200.001
14.4475	99.9975	100.002	200.001
14.45	99.9975	100.002	200.001
14.4525	99.9975	100.002	200.001
14.455	99.9975	100.002	200.001
14.4575	99.9975	100.002	200.001
14.46	99.9975	100.002	200.001
14.4625	99.9975	100.002	200.001
14.465	99.9975	100.002	200.001
14.4675	99.9975	100.002	200.001
14.47	99.9975	100.002	200.001
14.4725	99.9975	100.002	200.001
14.475	99.9975	100.002	200.001
14.4775	99.9975	100.002	200.001
14.48	99.9975	100.002	200.001
14.4825	99.9975	100.002	200.001
14.485	99.9975	100.002	200.001
14.4875	99.9975	100.002	200.001
14.49	99.9975	100.002	200.001
14.4925	99.9976	100.002	200.001
14.495	99.9976	100.002	200.001
14.4975	99.9976	100.002	200.001
14.5	99.9976	100.002	200.001
14.5025	99.9976	100.002	200.001
14.505	99.9976	100.002	200.001
14.5075	99.9976	100.002	200.001
14.51	99.9976	100.002	200.001
14.5125	99.9976	100.002	200.001
14.515	99.9976	100.002	200.001
14.5175	99.9976	100.002	200.001
14.52	99.9976	100.002	200.001
14.5225	99.9976	100.002	200.001
14.525	99.9976	100.002	200.001
14.5275	99.9976	100.002	200.001
14.53	99.9976	100.002	200.001
14.5325	99.9976	100.002	200.001
14.535	99.9976	100.002	200.001
14.5375	99.9976	100.002	200.001
14.54	99.9976	100.002	200.001
14.5425	99.9976	100.002	200.001
14.545	99.9976	100.002	200.001
14.5475	99.9976	100.002	200.001
14.55	99.9976	100.002	200.001
14.5525	99.9976	100.002	200.001
14.555	99.9976	100.001	200.001
14.5575	99.9976	100.001	200.001
14.56	99.9976	100.001	200.001
14.5625	99.9976	100.001	200.001
14.565	99.9976	100.001	200.001
14.5675	99.9976	100.001	200.001
14.57	99.9976	100.001	200.001
14.5725	99.9977	100.001	200.001
14.575	99.9977	100.001	200.001
14.5775	99.9977	100.001	200.001
14.58	99.9977	100.001	200.001
14.5825	99.9977	100.001	200.001
14.585	99.9977	100.001	200.001
14.5875	99.9977	100.001	200.001
14.59	99.9977	100.001	200.001
14.5925	99.9977	100.001	200.001
14.595	99.9977	100.001	200.001
14.5975	99.9977	100.001	200.001
14.6	99.9977	100.001	200.001
14.6025	99.9977	100.001	200.001
14.605	99.9977	100.001	200.001
14.6075	99.9977	100.001	200.001
14.61	99.9977	100.001	200.001
14.6125	99.9977	100.001	200.001
14.615	99.9977	100.001	200.001
14.6175	99.9977	100.001	200.001
14.62	99.9977	100.001	200.001
14.6225	99.9977	100.001	200.001
14.625	99.9977	100.001	200.001
14.6275	99.9977	100.001	200.001
14.63	99.9977	100.001	200.001
14.6325	99.9977	100.001	200.001
14.635	99.9977	100.001	200.001
14.6375	99.9977	100.001	200.001
14.64	99.9977	100.001	200.001
14.6425	99.9978	100.001	200.001
14.645	99.9978	100.001	200.001
14.6475	99.9978	100.001	200.001
14.65	99.9978	100.001	200.001
14.6525	99.9978	100.001	200.001
14.655	99.9978	100.001	200.001
14.6575	99.9978	100.001	200.001
14.66	99.9978	100.001	200.001
14.6625	99.9978	100.001	200.001
14.665	99.9978	100.001	200.001
14.6675	99.9978	100.001	200.001
14.67	99.9978	100.001	200.001
14.6725	99.9978	100.001	200.001
14.675	99.9978	100.001	200.001
14.6775	99.9978	100.001	200.001
14.68	99.9978	100.001	200.001
14.6825	99.9978	100.001	200.001
14.685	99.9978	100.001	200.001
14.6875	99.9978	100.001	200.001
14.69	99.9978	100.001	200.001
14.6925	99.9978	100.001	200.001
14.695	99.9978	100.001	200.001
14.6975	99.9978	100.001	200.001
14.7	99.9978	100.001	200.001
14.7025	99.9978	100.001	200.001
14.705	99.9978	100.001	200.001
14.7075	99.9978	100.001	200.001
14.71	99.9978	100.001	200.001
14.7125	99.9979	100.001	200.001
14.715	99.9979	100.001	200.001
14.7175	99.9979	100.001	200.001
14.72	99.9979	100.001	200.001
14.7225	99.9979	100.001	200.001
14.725	99.9979	100.001	200.001
14.7275	99.9979	100.001	200.001
14.73	99.9979	100.001	200.001
14.7325	99.9979	100.001	200.001
14.735	99.9979	100.001	200.001
14.7375	99.9979	100.001	200.001
14.74	99.9979	100.001	200.001
14.7425	99.9979	100.001	200.001
14.745	99.9979	100.001	200.001
14.7475	99.9979	100.001	200.001
14.75	99.9979	100.001	200.001
14.7525	99.9979	100.001	200.001
14.755	99.9979	100.001	200.001
14.7575	99.9979	100.001	200.001
14.76	99.9979	100.001	200.001
14.7625	99.9979	100.001	200.001
14.765	99.9979	100.001	200.001
14.7675	99.9979	100.001	200.001
14.77	99.9979	100.001	200.001
14.7725	99.9979	100.001	200.001
14.775	99.9979	100.001	200.001
14.7775	99.998	100.001	200.001
14.78	99.998	100.001	200.001
14.7825	99.998	100.001	200.001
14.785	99.998	100.001	200.001
14.7875	99.998	100.001	200.001
14.79	99.998	100.001	200.001
14.7925	99.998	100.001	200.001
14.795	99.998	100.001	200.001
14.7975	99.998	100.001	200.001
14.8	99.998	100.001	200.001
14.8025	99.998	100.001	200.001
14.805	99.998	100.001	200.001
14.8075	99.998	100.001	200.001
14.81	99.998	100.001	200.001
14.8125	99.998	100.001	200.001
14.815	99.998	100.001	200.001
14.8175	99.998	100.001	200.001
14.82	99.998	100.001	200.001
14.8225	99.998	100.001	200.001
14.825	99.998	100.001	200.001
14.8275	99.998	100.001	200.001
14.83	99.998	100.001	200.001
14.8325	99.998	100.001	200.001
14.835	99.998	100.001	200.001
14.8375	99.998	100.001	200.001
14.84	99.9981	100.001	200.001
14.8425	99.9981	100.001	200.001
14.845	99.9981	100.001	200.001
14.8475	99.9981	100.001	200.001
14.85	99.9981	100.001	200.001
14.8525	99.9981	100.001	200.001
14.855	99.9981	100.001	200.001
14.8575	99.9981	100.001	200.001
14.86	99.9981	100.001	200.001
14.8625	99.9981	100.001	200.001
14.865	99.9981	100.001	200.001
14.8675	99.9981	100.001	200.001
14.87	99.9981	100.001	200.001
14.8725	99.9981	100.001	200.001
14.875	99.9981	100.001	200.001
14.8775	99.9981	100.001	200.001
14.88	99.9981	100.001	200.001
14.8825	99.9981	100.001	200.001
14.885	99.9981	100.001	200.001
14.8875	99.9981	100.001	200.001
14.89	99.9981	100.001	200.001
14.8925	99.9981	100.001	200.001
14.895	99.9981	100.001	200.001
14.8975	99.9981	100.001	200.001
14.9	99.9981	100.001	200.001
14.9025	99.9982	100.001	200.001
14.905	99.9982	100.001	200.001
14.9075	99.9982	100.001	200.001
14.91	99.9982	100.001	200.001
14.9125	99.9982	100.001	200.001
14.915	99.9982	100.001	200.001
14.9175	99.9982	100.001	200.001
14.92	99.9982	100.001	200.001
14.9225	99.9982	100.001	200.001
14.925	99.9982	100.001	200.001
14.9275	99.9982	100.001	200.001
14.93	99.9982	100.001	200.001
14.9325	99.9982	100.001	200.001
14.935	99.9982	100.001	200.001
14.9375	99.9982	100.001	200.001
14.94	99.9982	100.001	200.001
14.9425	99.9982	100.001	200.001
14.945	99.9982	100.001	200.001
14.9475	99.9982	100.001	200.001
14.95	99.9982	100.001	200.001
14.9525	99.9982	100.001	200.001
14.955	99.9982	100.001	200.001
14.9575	99.9982	100.001	200.001
14.96	99.9982	100.001	200.001
14.9625	99.9983	100.001	200.001
14.965	99.9983	100.001	200.001
14.9675	99.9983	100.001	200.001
14.97	99.9983	100.001	200.001
14.9725	99.9983	100.001	200.001
14.975	99.9983	100.001	200.001
14.9775	99.9983	100.001	200.001
14.98	99.9983	100.001	200.001
14.9825	99.9983	100.001	200.001
14.985	99.9983	100.001	200.001
14.9875	99.9983	100.001	200.001
14.99	99.9983	100.001	200.001
14.9925	99.9983	100.001	200.001
14.995	99.9983	100.001	200.001
14.9975	99.9983	100.001	200.001
15	99.9983	100.001	200.001
