# N = 400
# (S0, I0, R0) = (293.75, 91.25, 15)
# (a, b, c) = (4, 1, 0.5)
# time, S, I, R
0	293.75	91.25	15
0.0025	293.098	91.6923	15.2098
0.005	292.444	92.1353	15.4204
0.0075	291.789	92.5789	15.6319
0.01	291.133	93.0231	15.8443
0.0125	290.475	93.4678	16.0574
0.015	289.815	93.9132	16.2714
0.0175	289.155	94.3591	16.4863
0.02	288.492	94.8056	16.702
0.0225	287.829	95.2527	16.9186
0.025	287.164	95.7002	17.136
0.0275	286.498	96.1482	17.3542
0.03	285.83	96.5968	17.5733
0.0325	285.161	97.0458	17.7933
0.035	284.491	97.4952	18.0141
0.0375	283.819	97.9451	18.2357
0.04	283.146	98.3954	18.4582
0.0425	282.472	98.8461	18.6816
0.045	281.797	99.2972	18.9058
0.0475	281.12	99.7487	19.1308
0.05	280.443	100.201	19.3567
0.0525	279.764	100.653	19.5834
0.055	279.084	101.105	19.811
0.0575	278.403	101.558	20.0394
0.06	277.72	102.011	20.2687
0.0625	277.037	102.465	20.4988
0.065	276.352	102.918	20.7297
0.0675	275.666	103.372	20.9616
0.07	274.98	103.826	21.1942
0.0725	274.292	104.28	21.4277
0.075	273.603	104.735	21.662
0.0775	272.913	105.189	21.8972
0.08	272.222	105.644	22.1332
0.0825	271.531	106.099	22.3701
0.085	270.838	106.554	22.6078
0.0875	270.144	107.009	22.8464
0.09	269.45	107.465	23.0857
0.0925	268.754	107.92	23.326
0.095	268.058	108.375	23.567
0.0975	267.361	108.831	23.8089
0.1	266.662	109.286	24.0517
0.1025	265.964	109.741	24.2952
0.105	265.264	110.197	24.5396
0.1075	264.563	110.652	24.7849
0.11	263.862	111.107	25.0309
0.1125	263.16	111.562	25.2778
0.115	262.457	112.017	25.5255
0.1175	261.754	112.472	25.7741
0.12	261.05	112.927	26.0235
0.1225	260.345	113.381	26.2737
0.125	259.64	113.836	26.5247
0.1275	258.934	114.29	26.7765
0.13	258.227	114.744	27.0292
0.1325	257.52	115.198	27.2827
0.135	256.812	115.651	27.537
0.1375	256.103	116.104	27.7921
0.14	255.395	116.557	28.048
0.1425	254.685	117.01	28.3048
0.145	253.975	117.462	28.5623
0.1475	253.265	117.914	28.8207
0.15	252.554	118.366	29.0798
0.1525	251.843	118.817	29.3398
0.155	251.131	119.268	29.6006
0.1575	250.419	119.719	29.8621
0.16	249.707	120.169	30.1245
0.1625	248.994	120.618	30.3877
0.165	248.281	121.067	30.6516
0.1675	247.568	121.516	30.9164
0.17	246.854	121.964	31.1819
0.1725	246.141	122.411	31.4482
0.175	245.427	122.858	31.7153
0.1775	244.712	123.305	31.9832
0.18	243.998	123.75	32.2519
0.1825	243.283	124.195	32.5214
0.185	242.568	124.64	32.7916
0.1875	241.853	125.084	33.0626
0.19	241.138	125.527	33.3343
0.1925	240.423	125.97	33.6069
0.195	239.708	126.412	33.8802
0.1975	238.993	126.853	34.1542
0.2	238.278	127.293	34.4291
0.2025	237.562	127.733	34.7046
0.205	236.847	128.172	34.981
0.2075	236.132	128.61	35.258
0.21	235.417	129.047	35.5359
0.2125	234.702	129.484	35.8144
0.215	233.987	129.919	36.0937
0.2175	233.272	130.354	36.3738
0.22	232.557	130.788	36.6546
0.2225	231.843	131.221	36.9361
0.225	231.129	131.653	37.2183
0.2275	230.415	132.084	37.5013
0.23	229.701	132.514	37.785
0.2325	228.987	132.943	38.0694
0.235	228.274	133.372	38.3546
0.2375	227.561	133.799	38.6404
0.24	226.848	134.225	38.9269
0.2425	226.136	134.65	39.2142
0.245	225.424	135.074	39.5022
0.2475	224.712	135.497	39.7908
0.25	224.001	135.919	40.0802
0.2525	223.29	136.34	40.3702
0.255	222.579	136.76	40.6609
0.2575	221.87	137.178	40.9524
0.26	221.16	137.595	41.2445
0.2625	220.451	138.012	41.5372
0.265	219.743	138.427	41.8307
0.2675	219.035	138.84	42.1248
0.27	218.327	139.253	42.4196
0.2725	217.621	139.664	42.715
0.275	216.915	140.074	43.0111
0.2775	216.209	140.483	43.3078
0.28	215.504	140.891	43.6052
0.2825	214.8	141.297	43.9033
0.285	214.096	141.702	44.202
0.2875	213.394	142.105	44.5013
0.29	212.691	142.507	44.8012
0.2925	211.99	142.908	45.1018
0.295	211.289	143.308	45.403
0.2975	210.59	143.706	45.7049
0.3	209.891	144.102	46.0073
0.3025	209.192	144.497	46.3103
0.305	208.495	144.891	46.614
0.3075	207.798	145.283	46.9183
0.31	207.103	145.674	47.2231
0.3125	206.408	146.063	47.5286
0.315	205.714	146.451	47.8346
0.3175	205.021	146.838	48.1412
0.32	204.329	147.222	48.4485
0.3225	203.638	147.605	48.7562
0.325	202.948	147.987	49.0646
0.3275	202.259	148.367	49.3735
0.33	201.571	148.746	49.683
0.3325	200.884	149.123	49.993
0.335	200.198	149.498	50.3036
0.3375	199.514	149.872	50.6148
0.34	198.83	150.244	50.9264
0.3425	198.147	150.614	51.2387
0.345	197.466	150.983	51.5514
0.3475	196.785	151.35	51.8647
0.35	196.106	151.715	52.1785
0.3525	195.428	152.079	52.4928
0.355	194.752	152.441	52.8077
0.3575	194.076	152.801	53.123
0.36	193.402	153.16	53.4389
0.3625	192.728	153.516	53.7552
0.365	192.057	153.871	54.0721
0.3675	191.386	154.225	54.3894
0.37	190.717	154.576	54.7072
0.3725	190.049	154.926	55.0255
0.375	189.382	155.274	55.3443
0.3775	188.717	155.62	55.6635
0.38	188.053	155.964	55.9832
0.3825	187.39	156.306	56.3034
0.385	186.729	156.647	56.624
0.3875	186.069	156.986	56.945
0.39	185.411	157.322	57.2666
0.3925	184.754	157.657	57.5885
0.395	184.099	157.991	57.9109
0.3975	183.445	158.322	58.2337
0.4	182.792	158.651	58.5569
0.4025	182.141	158.978	58.8805
0.405	181.491	159.304	59.2046
0.4075	180.843	159.628	59.529
0.41	180.197	159.949	59.8539
0.4125	179.552	160.269	60.1792
0.415	178.908	160.587	60.5048
0.4175	178.267	160.903	60.8308
0.42	177.626	161.216	61.1572
0.4225	176.988	161.528	61.484
0.425	176.351	161.838	61.8112
0.4275	175.715	162.146	62.1387
0.43	175.081	162.452	62.4665
0.4325	174.449	162.756	62.7948
0.435	173.819	163.058	63.1233
0.4375	173.19	163.358	63.4522
0.44	172.563	163.656	63.7815
0.4425	171.937	163.952	64.1111
0.445	171.314	164.245	64.441
0.4475	170.692	164.537	64.7712
0.45	170.071	164.827	65.1017
0.4525	169.453	165.115	65.4326
0.455	168.836	165.4	65.7637
0.4575	168.221	165.684	66.0952
0.46	167.608	165.965	66.4269
0.4625	166.996	166.245	66.7589
0.465	166.386	166.522	67.0912
0.4675	165.778	166.798	67.4238
0.47	165.172	167.071	67.7567
0.4725	164.568	167.342	68.0898
0.475	163.966	167.611	68.4232
0.4775	163.365	167.878	68.7568
0.48	162.766	168.143	69.0906
0.4825	162.169	168.406	69.4248
0.485	161.574	168.667	69.7591
0.4875	160.981	168.925	70.0937
0.49	160.39	169.182	70.4285
0.4925	159.8	169.436	70.7635
0.495	159.213	169.688	71.0988
0.4975	158.627	169.938	71.4342
0.5	158.044	170.186	71.7699
0.5025	157.462	170.432	72.1057
0.505	156.882	170.676	72.4418
0.5075	156.304	170.918	72.778
0.51	155.728	171.157	73.1144
0.5125	155.154	171.395	73.451
0.515	154.582	171.63	73.7878
0.5175	154.012	171.863	74.1247
0.52	153.444	172.094	74.4618
0.5225	152.878	172.323	74.799
0.525	152.314	172.55	75.1364
0.5275	151.752	172.774	75.4739
0.53	151.192	172.997	75.8116
0.5325	150.634	173.217	76.1494
0.535	150.077	173.435	76.4873
0.5375	149.523	173.651	76.8253
0.54	148.971	173.865	77.1635
0.5425	148.421	174.077	77.5017
0.545	147.873	174.287	77.8401
0.5475	147.327	174.494	78.1786
0.55	146.783	174.7	78.5171
0.5525	146.241	174.903	78.8558
0.555	145.702	175.104	79.1945
0.5575	145.164	175.303	79.5333
0.56	144.628	175.5	79.8722
0.5625	144.094	175.695	80.2111
0.565	143.563	175.887	80.5501
0.5675	143.033	176.078	80.8892
0.57	142.506	176.266	81.2283
0.5725	141.98	176.452	81.5675
0.575	141.457	176.636	81.9066
0.5775	140.936	176.818	82.2459
0.58	140.417	176.998	82.5851
0.5825	139.9	177.176	82.9244
0.585	139.385	177.352	83.2637
0.5875	138.872	177.525	83.603
0.59	138.361	177.697	83.9423
0.5925	137.852	177.866	84.2816
0.595	137.346	178.033	84.6209
0.5975	136.841	178.199	84.9602
0.6	136.339	178.362	85.2995
0.6025	135.839	178.523	85.6388
0.605	135.34	178.682	85.978
0.6075	134.844	178.838	86.3173
0.61	134.35	178.993	86.6564
0.6125	133.859	179.146	86.9956
0.615	133.369	179.296	87.3347
0.6175	132.881	179.445	87.6737
0.62	132.396	179.591	88.0127
0.6225	131.912	179.736	88.3517
0.625	131.431	179.878	88.6905
0.6275	130.952	180.019	89.0293
0.63	130.475	180.157	89.368
0.6325	130	180.293	89.7067
0.635	129.527	180.427	90.0452
0.6375	129.057	180.559	90.3837
0.64	128.588	180.69	90.7221
0.6425	128.122	180.818	91.0604
0.645	127.658	180.944	91.3985
0.6475	127.195	181.068	91.7366
0.65	126.735	181.19	92.0745
0.6525	126.277	181.31	92.4123
0.655	125.822	181.428	92.75
0.6575	125.368	181.544	93.0876
0.66	124.916	181.659	93.425
0.6625	124.467	181.771	93.7623
0.665	124.02	181.881	94.0995
0.6675	123.574	181.989	94.4365
0.67	123.131	182.095	94.7733
0.6725	122.69	182.2	95.11
0.675	122.251	182.302	95.4466
0.6775	121.814	182.403	95.7829
0.68	121.38	182.501	96.1191
0.6825	120.947	182.598	96.4551
0.685	120.517	182.692	96.791
0.6875	120.088	182.785	97.1266
0.69	119.662	182.876	97.4621
0.6925	119.238	182.965	97.7974
0.695	118.816	183.052	98.1324
0.6975	118.396	183.137	98.4673
0.7	117.978	183.22	98.8019
0.7025	117.562	183.302	99.1364
0.705	117.148	183.381	99.4706
0.7075	116.736	183.459	99.8046
0.71	116.327	183.535	100.138
0.7125	115.919	183.609	100.472
0.715	115.514	183.681	100.805
0.7175	115.11	183.751	101.138
0.72	114.709	183.82	101.471
0.7225	114.31	183.887	101.804
0.725	113.913	183.951	102.136
0.7275	113.517	184.014	102.468
0.73	113.124	184.076	102.8
0.7325	112.733	184.135	103.132
0.735	112.344	184.193	103.463
0.7375	111.957	184.249	103.794
0.74	111.572	184.303	104.125
0.7425	111.189	184.356	104.455
0.745	110.808	184.406	104.785
0.7475	110.43	184.455	105.115
0.75	110.053	184.502	105.445
0.7525	109.678	184.548	105.774
0.755	109.305	184.592	106.103
0.7575	108.934	184.634	106.432
0.76	108.566	184.674	106.76
0.7625	108.199	184.713	107.088
0.765	107.834	184.75	107.416
0.7675	107.471	184.785	107.743
0.77	107.11	184.819	108.071
0.7725	106.752	184.851	108.397
0.775	106.395	184.881	108.724
0.7775	106.04	184.91	109.05
0.78	105.687	184.937	109.376
0.7825	105.336	184.963	109.701
0.785	104.987	184.987	110.026
0.7875	104.64	185.009	110.351
0.79	104.295	185.03	110.675
0.7925	103.952	185.049	110.999
0.795	103.611	185.066	111.323
0.7975	103.271	185.082	111.647
0.8	102.934	185.096	111.969
0.8025	102.599	185.109	112.292
0.805	102.265	185.12	112.614
0.8075	101.934	185.13	112.936
0.81	101.604	185.138	113.258
0.8125	101.276	185.145	113.579
0.815	100.95	185.15	113.899
0.8175	100.627	185.154	114.22
0.82	100.304	185.156	114.54
0.8225	99.9843	185.157	114.859
0.825	99.666	185.156	115.178
0.8275	99.3495	185.154	115.497
0.83	99.035	185.15	115.815
0.8325	98.7223	185.145	116.133
0.835	98.4114	185.138	116.451
0.8375	98.1024	185.13	116.768
0.84	97.7952	185.12	117.084
0.8425	97.4899	185.109	117.401
0.845	97.1864	185.097	117.716
0.8475	96.8848	185.083	118.032
0.85	96.5849	185.068	118.347
0.8525	96.2869	185.052	118.661
0.855	95.9907	185.034	118.975
0.8575	95.6963	185.015	119.289
0.86	95.4036	184.994	119.602
0.8625	95.1128	184.972	119.915
0.865	94.8238	184.949	120.227
0.8675	94.5365	184.924	120.539
0.87	94.251	184.898	120.851
0.8725	93.9673	184.871	121.162
0.875	93.6853	184.843	121.472
0.8775	93.4051	184.813	121.782
0.88	93.1266	184.782	122.092
0.8825	92.8499	184.749	122.401
0.885	92.575	184.716	122.709
0.8875	92.3017	184.681	123.018
0.89	92.0302	184.645	123.325
0.8925	91.7604	184.607	123.632
0.895	91.4923	184.569	123.939
0.8975	91.2259	184.529	124.245
0.9	90.9612	184.488	124.551
0.9025	90.6982	184.445	124.857
0.905	90.4369	184.402	125.161
0.9075	90.1773	184.357	125.466
0.91	89.9193	184.311	125.769
0.9125	89.663	184.264	126.073
0.915	89.4084	184.216	126.376
0.9175	89.1555	184.167	126.678
0.92	88.9041	184.116	126.98
0.9225	88.6545	184.065	127.281
0.925	88.4064	184.012	127.582
0.9275	88.16	183.958	127.882
0.93	87.9153	183.903	128.182
0.9325	87.6721	183.847	128.481
0.935	87.4305	183.79	128.78
0.9375	87.1906	183.731	129.078
0.94	86.9523	183.672	129.376
0.9425	86.7155	183.611	129.673
0.945	86.4803	183.55	129.97
0.9475	86.2468	183.487	130.266
0.95	86.0148	183.424	130.562
0.9525	85.7843	183.359	130.857
0.955	85.5554	183.293	131.151
0.9575	85.3281	183.227	131.445
0.96	85.1023	183.159	131.739
0.9625	84.8781	183.09	132.032
0.965	84.6554	183.021	132.324
0.9675	84.4342	182.95	132.616
0.97	84.2146	182.878	132.907
0.9725	83.9964	182.805	133.198
0.975	83.7798	182.732	133.488
0.9775	83.5647	182.657	133.778
0.98	83.3511	182.582	134.067
0.9825	83.1389	182.505	134.356
0.985	82.9283	182.428	134.644
0.9875	82.7191	182.35	134.931
0.99	82.5114	182.27	135.218
0.9925	82.3052	182.19	135.505
0.995	82.1004	182.109	135.79
0.9975	81.8971	182.027	136.076
1	81.6952	181.944	136.36
1.0025	81.4948	181.861	136.644
1.005	81.2958	181.776	136.928
1.0075	81.0983	181.691	137.211
1.01	80.9021	181.604	137.493
1.0125	80.7074	181.517	137.775
1.015	80.5141	181.429	138.057
1.0175	80.3221	181.341	138.337
1.02	80.1316	181.251	138.617
1.0225	79.9425	181.16	138.897
1.025	79.7547	181.069	139.176
1.0275	79.5684	180.977	139.454
1.03	79.3834	180.884	139.732
1.0325	79.1997	180.791	140.01
1.035	79.0175	180.696	140.286
1.0375	78.8365	180.601	140.562
1.04	78.657	180.505	140.838
1.0425	78.4787	180.409	141.113
1.045	78.3018	180.311	141.387
1.0475	78.1263	180.213	141.661
1.05	77.952	180.114	141.934
1.0525	77.7791	180.014	142.207
1.055	77.6075	179.914	142.479
1.0575	77.4372	179.813	142.75
1.06	77.2681	179.711	143.021
1.0625	77.1004	179.609	143.291
1.065	76.934	179.505	143.561
1.0675	76.7688	179.402	143.83
1.07	76.6049	179.297	144.098
1.0725	76.4423	179.192	144.366
1.075	76.2809	179.086	144.633
1.0775	76.1208	178.979	144.9
1.08	75.962	178.872	145.166
1.0825	75.8044	178.764	145.431
1.085	75.648	178.656	145.696
1.0875	75.4929	178.547	145.96
1.09	75.339	178.437	146.224
1.0925	75.1863	178.327	146.487
1.095	75.0348	178.216	146.749
1.0975	74.8845	178.104	147.011
1.1	74.7355	177.992	147.272
1.1025	74.5876	177.88	147.533
1.105	74.4409	177.766	147.793
1.1075	74.2954	177.652	148.052
1.11	74.1511	177.538	148.311
1.1125	74.008	177.423	148.569
1.115	73.866	177.307	148.827
1.1175	73.7252	177.191	149.084
1.12	73.5855	177.075	149.34
1.1225	73.447	176.957	149.596
1.125	73.3097	176.84	149.851
1.1275	73.1734	176.721	150.105
1.13	73.0384	176.603	150.359
1.1325	72.9044	176.483	150.612
1.135	72.7716	176.364	150.865
1.1375	72.6398	176.243	151.117
1.14	72.5092	176.122	151.368
1.1425	72.3797	176.001	151.619
1.145	72.2513	175.879	151.869
1.1475	72.124	175.757	152.119
1.15	71.9978	175.634	152.368
1.1525	71.8727	175.511	152.616
1.155	71.7486	175.388	152.864
1.1575	71.6257	175.264	153.111
1.16	71.5038	175.139	153.357
1.1625	71.3829	175.014	153.603
1.165	71.2631	174.889	153.848
1.1675	71.1444	174.763	154.093
1.17	71.0267	174.636	154.337
1.1725	70.91	174.51	154.58
1.175	70.7944	174.383	154.823
1.1775	70.6798	174.255	155.065
1.18	70.5662	174.127	155.307
1.1825	70.4537	173.999	155.548
1.185	70.3422	173.87	155.788
1.1875	70.2316	173.741	156.027
1.19	70.1221	173.611	156.266
1.1925	70.0136	173.482	156.505
1.195	69.9061	173.351	156.743
1.1975	69.7996	173.221	156.98
1.2	69.694	173.09	157.216
1.2025	69.5894	172.958	157.452
1.205	69.4858	172.827	157.687
1.2075	69.3832	172.695	157.922
1.21	69.2815	172.562	158.156
1.2125	69.1808	172.43	158.389
1.215	69.0811	172.297	158.622
1.2175	68.9823	172.163	158.854
1.22	68.8844	172.03	159.086
1.2225	68.7875	171.896	159.317
1.225	68.6915	171.761	159.547
1.2275	68.5964	171.627	159.777
1.23	68.5023	171.492	160.006
1.2325	68.409	171.357	160.234
1.235	68.3167	171.221	160.462
1.2375	68.2253	171.086	160.689
1.24	68.1348	170.95	160.916
1.2425	68.0452	170.813	161.142
1.245	67.9565	170.677	161.367
1.2475	67.8687	170.54	161.592
1.25	67.7818	170.403	161.816
1.2525	67.6957	170.265	162.039
1.255	67.6106	170.128	162.262
1.2575	67.5263	169.99	162.484
1.26	67.4429	169.852	162.706
1.2625	67.3603	169.713	162.927
1.265	67.2786	169.575	163.147
1.2675	67.1977	169.436	163.367
1.27	67.1177	169.297	163.586
1.2725	67.0385	169.157	163.804
1.275	66.9602	169.018	164.022
1.2775	66.8827	168.878	164.239
1.28	66.8061	168.738	164.456
1.2825	66.7302	168.598	164.672
1.285	66.6552	168.458	164.887
1.2875	66.581	168.317	165.102
1.29	66.5076	168.177	165.316
1.2925	66.435	168.036	165.529
1.295	66.3633	167.895	165.742
1.2975	66.2923	167.753	165.954
1.3	66.2221	167.612	166.166
1.3025	66.1527	167.47	166.377
1.305	66.0841	167.328	166.587
1.3075	66.0163	167.186	166.797
1.31	65.9493	167.044	167.006
1.3125	65.883	166.902	167.215
1.315	65.8175	166.76	167.423
1.3175	65.7528	166.617	167.63
1.32	65.6888	166.474	167.837
1.3225	65.6256	166.331	168.043
1.325	65.5631	166.188	168.248
1.3275	65.5014	166.045	168.453
1.33	65.4405	165.902	168.658
1.3325	65.3802	165.759	168.861
1.335	65.3207	165.615	169.064
1.3375	65.262	165.471	169.267
1.34	65.204	165.328	169.468
1.3425	65.1467	165.184	169.67
1.345	65.0901	165.04	169.87
1.3475	65.0342	164.896	170.07
1.35	64.9791	164.752	170.269
1.3525	64.9246	164.607	170.468
1.355	64.8709	164.463	170.666
1.3575	64.8178	164.318	170.864
1.36	64.7655	164.174	171.061
1.3625	64.7138	164.029	171.257
1.365	64.6629	163.884	171.453
1.3675	64.6126	163.74	171.648
1.37	64.563	163.595	171.842
1.3725	64.5141	163.45	172.036
1.375	64.4659	163.305	172.229
1.3775	64.4183	163.16	172.422
1.38	64.3714	163.014	172.614
1.3825	64.3252	162.869	172.806
1.385	64.2796	162.724	172.996
1.3875	64.2347	162.579	173.187
1.39	64.1904	162.433	173.376
1.3925	64.1468	162.288	173.565
1.395	64.1038	162.142	173.754
1.3975	64.0615	161.997	173.942
1.4	64.0198	161.851	174.129
1.4025	63.9787	161.706	174.316
1.405	63.9383	161.56	174.502
1.4075	63.8985	161.414	174.687
1.41	63.8593	161.269	174.872
1.4125	63.8207	161.123	175.056
1.415	63.7828	160.977	175.24
1.4175	63.7454	160.831	175.423
1.42	63.7087	160.686	175.606
1.4225	63.6726	160.54	175.788
1.425	63.6371	160.394	175.969
1.4275	63.6022	160.248	176.15
1.43	63.5679	160.102	176.33
1.4325	63.5341	159.956	176.509
1.435	63.501	159.811	176.688
1.4375	63.4684	159.665	176.867
1.44	63.4365	159.519	177.045
1.4425	63.4051	159.373	177.222
1.445	63.3743	159.227	177.398
1.4475	63.344	159.082	177.574
1.45	63.3144	158.936	177.75
1.4525	63.2853	158.79	177.925
1.455	63.2567	158.644	178.099
1.4575	63.2288	158.499	178.273
1.46	63.2013	158.353	178.446
1.4625	63.1745	158.207	178.618
1.465	63.1481	158.062	178.79
1.4675	63.1224	157.916	178.962
1.47	63.0971	157.77	179.132
1.4725	63.0725	157.625	179.303
1.475	63.0483	157.479	179.472
1.4775	63.0247	157.334	179.641
1.48	63.0016	157.189	179.81
1.4825	62.9791	157.043	179.978
1.485	62.957	156.898	180.145
1.4875	62.9355	156.753	180.312
1.49	62.9146	156.607	180.478
1.4925	62.8941	156.462	180.644
1.495	62.8741	156.317	180.809
1.4975	62.8547	156.172	180.973
1.5	62.8358	156.027	181.137
1.5025	62.8173	155.882	181.301
1.505	62.7994	155.737	181.463
1.5075	62.782	155.592	181.626
1.51	62.7651	155.448	181.787
1.5125	62.7486	155.303	181.948
1.515	62.7327	155.158	182.109
1.5175	62.7172	155.014	182.269
1.52	62.7022	154.869	182.428
1.5225	62.6878	154.725	182.587
1.525	62.6737	154.581	182.745
1.5275	62.6602	154.437	182.903
1.53	62.6471	154.292	183.06
1.5325	62.6346	154.148	183.217
1.535	62.6224	154.004	183.373
1.5375	62.6108	153.861	183.529
1.54	62.5996	153.717	183.684
1.5425	62.5889	153.573	183.838
1.545	62.5786	153.43	183.992
1.5475	62.5688	153.286	184.145
1.55	62.5594	153.143	184.298
1.5525	62.5505	152.999	184.45
1.555	62.542	152.856	184.602
1.5575	62.534	152.713	184.753
1.56	62.5264	152.57	184.903
1.5625	62.5193	152.427	185.053
1.565	62.5126	152.284	185.203
1.5675	62.5063	152.142	185.352
1.57	62.5005	151.999	185.5
1.5725	62.495	151.857	185.648
1.575	62.4901	151.714	185.795
1.5775	62.4855	151.572	185.942
1.58	62.4814	151.43	186.088
1.5825	62.4776	151.288	186.234
1.585	62.4743	151.146	186.379
1.5875	62.4715	151.005	186.524
1.59	62.469	150.863	186.668
1.5925	62.4669	150.721	186.812
1.595	62.4653	150.58	186.955
1.5975	62.464	150.439	187.097
1.6	62.4631	150.298	187.239
1.6025	62.4627	150.157	187.381
1.605	62.4626	150.016	187.521
1.6075	62.463	149.875	187.662
1.61	62.4637	149.735	187.802
1.6125	62.4648	149.594	187.941
1.615	62.4663	149.454	188.08
1.6175	62.4682	149.314	188.218
1.62	62.4705	149.174	188.356
1.6225	62.4732	149.034	188.493
1.625	62.4762	148.894	188.63
1.6275	62.4796	148.754	188.766
1.63	62.4834	148.615	188.902
1.6325	62.4876	148.476	189.037
1.635	62.4921	148.337	189.171
1.6375	62.497	148.197	189.305
1.64	62.5023	148.059	189.439
1.6425	62.5079	147.92	189.572
1.645	62.5139	147.781	189.705
1.6475	62.5203	147.643	189.837
1.65	62.527	147.505	189.968
1.6525	62.534	147.367	190.099
1.655	62.5415	147.229	190.23
1.6575	62.5492	147.091	190.36
1.66	62.5573	146.953	190.49
1.6625	62.5658	146.816	190.619
1.665	62.5746	146.678	190.747
1.6675	62.5837	146.541	190.875
1.67	62.5932	146.404	191.003
1.6725	62.6031	146.267	191.13
1.675	62.6132	146.131	191.256
1.6775	62.6237	145.994	191.382
1.68	62.6345	145.858	191.508
1.6825	62.6457	145.722	191.633
1.685	62.6572	145.586	191.757
1.6875	62.669	145.45	191.881
1.69	62.6811	145.314	192.005
1.6925	62.6936	145.179	192.128
1.695	62.7063	145.043	192.25
1.6975	62.7194	144.908	192.372
1.7	62.7329	144.773	192.494
1.7025	62.7466	144.639	192.615
1.705	62.7606	144.504	192.736
1.7075	62.775	144.369	192.856
1.71	62.7896	144.235	192.975
1.7125	62.8046	144.101	193.094
1.715	62.8198	143.967	193.213
1.7175	62.8354	143.833	193.331
1.72	62.8513	143.7	193.449
1.7225	62.8674	143.567	193.566
1.725	62.8839	143.433	193.683
1.7275	62.9007	143.3	193.799
1.73	62.9177	143.168	193.915
1.7325	62.9351	143.035	194.03
1.735	62.9527	142.902	194.145
1.7375	62.9706	142.77	194.259
1.74	62.9888	142.638	194.373
1.7425	63.0073	142.506	194.486
1.745	63.0261	142.375	194.599
1.7475	63.0452	142.243	194.712
1.75	63.0645	142.112	194.824
1.7525	63.0841	141.981	194.935
1.755	63.104	141.85	195.046
1.7575	63.1242	141.719	195.157
1.76	63.1446	141.588	195.267
1.7625	63.1653	141.458	195.377
1.765	63.1863	141.328	195.486
1.7675	63.2075	141.198	195.595
1.77	63.229	141.068	195.703
1.7725	63.2508	140.938	195.811
1.775	63.2728	140.809	195.918
1.7775	63.2951	140.68	196.025
1.78	63.3177	140.551	196.131
1.7825	63.3405	140.422	196.237
1.785	63.3635	140.294	196.343
1.7875	63.3869	140.165	196.448
1.79	63.4104	140.037	196.553
1.7925	63.4343	139.909	196.657
1.795	63.4583	139.781	196.761
1.7975	63.4826	139.654	196.864
1.8	63.5072	139.526	196.967
1.8025	63.532	139.399	197.069
1.805	63.5571	139.272	197.171
1.8075	63.5824	139.145	197.272
1.81	63.6079	139.019	197.374
1.8125	63.6337	138.892	197.474
1.815	63.6597	138.766	197.574
1.8175	63.6859	138.64	197.674
1.82	63.7124	138.514	197.773
1.8225	63.7391	138.389	197.872
1.825	63.766	138.263	197.971
1.8275	63.7932	138.138	198.069
1.83	63.8206	138.013	198.166
1.8325	63.8482	137.889	198.263
1.835	63.876	137.764	198.36
1.8375	63.9041	137.64	198.456
1.84	63.9324	137.516	198.552
1.8425	63.9609	137.392	198.647
1.845	63.9896	137.268	198.742
1.8475	64.0186	137.145	198.837
1.85	64.0477	137.021	198.931
1.8525	64.0771	136.898	199.025
1.855	64.1067	136.775	199.118
1.8575	64.1365	136.653	199.211
1.86	64.1665	136.53	199.303
1.8625	64.1967	136.408	199.395
1.865	64.2271	136.286	199.487
1.8675	64.2578	136.164	199.578
1.87	64.2886	136.043	199.669
1.8725	64.3196	135.922	199.759
1.875	64.3509	135.8	199.849
1.8775	64.3823	135.68	199.938
1.88	64.4139	135.559	200.027
1.8825	64.4458	135.438	200.116
1.885	64.4778	135.318	200.204
1.8875	64.51	135.198	200.292
1.89	64.5425	135.078	200.379
1.8925	64.5751	134.958	200.466
1.895	64.6079	134.839	200.553
1.8975	64.6409	134.72	200.639
1.9	64.6741	134.601	200.725
1.9025	64.7074	134.482	200.81
1.905	64.741	134.364	200.895
1.9075	64.7747	134.245	200.98
1.91	64.8086	134.127	201.064
1.9125	64.8428	134.009	201.148
1.915	64.877	133.892	201.231
1.9175	64.9115	133.774	201.314
1.92	64.9462	133.657	201.397
1.9225	64.981	133.54	201.479
1.925	65.016	133.423	201.561
1.9275	65.0511	133.306	201.642
1.93	65.0865	133.19	201.723
1.9325	65.122	133.074	201.804
1.935	65.1577	132.958	201.884
1.9375	65.1936	132.842	201.964
1.94	65.2296	132.727	202.044
1.9425	65.2658	132.612	202.123
1.945	65.3021	132.497	202.201
1.9475	65.3387	132.382	202.28
1.95	65.3754	132.267	202.358
1.9525	65.4122	132.153	202.435
1.955	65.4492	132.039	202.512
1.9575	65.4864	131.925	202.589
1.96	65.5237	131.811	202.665
1.9625	65.5612	131.697	202.741
1.965	65.5989	131.584	202.817
1.9675	65.6367	131.471	202.892
1.97	65.6746	131.358	202.967
1.9725	65.7128	131.246	203.042
1.975	65.751	131.133	203.116
1.9775	65.7894	131.021	203.189
1.98	65.828	130.909	203.263
1.9825	65.8667	130.797	203.336
1.985	65.9056	130.686	203.409
1.9875	65.9446	130.575	203.481
1.99	65.9838	130.464	203.553
1.9925	66.0231	130.353	203.624
1.995	66.0625	130.242	203.695
1.9975	66.1021	130.132	203.766
2	66.1418	130.022	203.837
2.0025	66.1817	129.912	203.907
2.005	66.2217	129.802	203.976
2.0075	66.2618	129.692	204.046
2.01	66.3021	129.583	204.115
2.0125	66.3425	129.474	204.183
2.015	66.3831	129.365	204.252
2.0175	66.4238	129.257	204.32
2.02	66.4646	129.148	204.387
2.0225	66.5056	129.04	204.454
2.025	66.5467	128.932	204.521
2.0275	66.5879	128.824	204.588
2.03	66.6292	128.717	204.654
2.0325	66.6707	128.61	204.72
2.035	66.7123	128.503	204.785
2.0375	66.754	128.396	204.85
2.04	66.7959	128.289	204.915
2.0425	66.8378	128.183	204.979
2.045	66.8799	128.077	205.043
2.0475	66.9222	127.971	205.107
2.05	66.9645	127.865	205.171
2.0525	67.007	127.759	205.234
2.055	67.0496	127.654	205.296
2.0575	67.0923	127.549	205.359
2.06	67.1351	127.444	205.421
2.0625	67.178	127.34	205.482
2.065	67.2211	127.235	205.544
2.0675	67.2642	127.131	205.605
2.07	67.3075	127.027	205.665
2.0725	67.3509	126.924	205.726
2.075	67.3944	126.82	205.786
2.0775	67.438	126.717	205.845
2.08	67.4817	126.614	205.905
2.0825	67.5256	126.511	205.963
2.085	67.5695	126.408	206.022
2.0875	67.6136	126.306	206.08
2.09	67.6577	126.204	206.138
2.0925	67.702	126.102	206.196
2.095	67.7463	126	206.254
2.0975	67.7908	125.899	206.311
2.1	67.8354	125.797	206.367
2.1025	67.88	125.696	206.424
2.105	67.9248	125.596	206.48
2.1075	67.9697	125.495	206.535
2.11	68.0147	125.395	206.591
2.1125	68.0597	125.294	206.646
2.115	68.1049	125.194	206.701
2.1175	68.1502	125.095	206.755
2.12	68.1955	124.995	206.809
2.1225	68.241	124.896	206.863
2.125	68.2865	124.797	206.917
2.1275	68.3322	124.698	206.97
2.13	68.3779	124.599	207.023
2.1325	68.4237	124.501	207.075
2.135	68.4697	124.403	207.127
2.1375	68.5157	124.305	207.179
2.14	68.5618	124.207	207.231
2.1425	68.6079	124.11	207.282
2.145	68.6542	124.012	207.333
2.1475	68.7006	123.915	207.384
2.15	68.747	123.819	207.434
2.1525	68.7936	123.722	207.485
2.155	68.8402	123.625	207.534
2.1575	68.8869	123.529	207.584
2.16	68.9337	123.433	207.633
2.1625	68.9805	123.338	207.682
2.165	69.0275	123.242	207.731
2.1675	69.0745	123.147	207.779
2.17	69.1216	123.052	207.827
2.1725	69.1688	122.957	207.875
2.175	69.2161	122.862	207.922
2.1775	69.2634	122.768	207.969
2.18	69.3108	122.673	208.016
2.1825	69.3583	122.579	208.062
2.185	69.4059	122.486	208.109
2.1875	69.4535	122.392	208.155
2.19	69.5012	122.299	208.2
2.1925	69.549	122.205	208.245
2.195	69.5969	122.113	208.291
2.1975	69.6448	122.02	208.335
2.2	69.6928	121.927	208.38
2.2025	69.7409	121.835	208.424
2.205	69.789	121.743	208.468
2.2075	69.8372	121.651	208.512
2.21	69.8855	121.56	208.555
2.2125	69.9339	121.468	208.598
2.215	69.9823	121.377	208.641
2.2175	70.0308	121.286	208.683
2.22	70.0793	121.195	208.725
2.2225	70.1279	121.105	208.767
2.225	70.1766	121.014	208.809
2.2275	70.2253	120.924	208.85
2.23	70.2741	120.834	208.892
2.2325	70.323	120.745	208.932
2.235	70.3719	120.655	208.973
2.2375	70.4209	120.566	209.013
2.24	70.4699	120.477	209.053
2.2425	70.519	120.388	209.093
2.245	70.5681	120.299	209.132
2.2475	70.6174	120.211	209.172
2.25	70.6666	120.123	209.211
2.2525	70.716	120.035	209.249
2.255	70.7653	119.947	209.288
2.2575	70.8148	119.859	209.326
2.26	70.8643	119.772	209.364
2.2625	70.9138	119.685	209.401
2.265	70.9634	119.598	209.439
2.2675	71.013	119.511	209.476
2.27	71.0627	119.425	209.512
2.2725	71.1125	119.339	209.549
2.275	71.1623	119.252	209.585
2.2775	71.2121	119.167	209.621
2.28	71.262	119.081	209.657
2.2825	71.312	118.995	209.693
2.285	71.362	118.91	209.728
2.2875	71.412	118.825	209.763
2.29	71.4621	118.74	209.797
2.2925	71.5122	118.656	209.832
2.295	71.5624	118.571	209.866
2.2975	71.6126	118.487	209.9
2.3	71.6629	118.403	209.934
2.3025	71.7132	118.319	209.967
2.305	71.7636	118.236	210.001
2.3075	71.814	118.153	210.034
2.31	71.8644	118.069	210.066
2.3125	71.9149	117.986	210.099
2.315	71.9654	117.904	210.131
2.3175	72.016	117.821	210.163
2.32	72.0666	117.739	210.195
2.3225	72.1172	117.657	210.226
2.325	72.1679	117.575	210.257
2.3275	72.2186	117.493	210.288
2.33	72.2693	117.412	210.319
2.3325	72.3201	117.33	210.35
2.335	72.3709	117.249	210.38
2.3375	72.4218	117.168	210.41
2.34	72.4727	117.088	210.44
2.3425	72.5236	117.007	210.469
2.345	72.5746	116.927	210.499
2.3475	72.6256	116.847	210.528
2.35	72.6766	116.767	210.556
2.3525	72.7276	116.687	210.585
2.355	72.7787	116.608	210.613
2.3575	72.8299	116.529	210.642
2.36	72.881	116.45	210.669
2.3625	72.9322	116.371	210.697
2.365	72.9834	116.292	210.725
2.3675	73.0346	116.214	210.752
2.37	73.0859	116.135	210.779
2.3725	73.1372	116.057	210.806
2.375	73.1885	115.979	210.832
2.3775	73.2398	115.902	210.858
2.38	73.2912	115.824	210.884
2.3825	73.3426	115.747	210.91
2.385	73.394	115.67	210.936
2.3875	73.4455	115.593	210.961
2.39	73.4969	115.517	210.986
2.3925	73.5484	115.44	211.011
2.395	73.5999	115.364	211.036
2.3975	73.6515	115.288	211.061
2.4	73.703	115.212	211.085
2.4025	73.7546	115.136	211.109
2.405	73.8062	115.061	211.133
2.4075	73.8578	114.986	211.156
2.41	73.9095	114.911	211.18
2.4125	73.9611	114.836	211.203
2.415	74.0128	114.761	211.226
2.4175	74.0645	114.687	211.249
2.42	74.1162	114.612	211.271
2.4225	74.168	114.538	211.294
2.425	74.2197	114.465	211.316
2.4275	74.2715	114.391	211.338
2.43	74.3233	114.317	211.359
2.4325	74.3751	114.244	211.381
2.435	74.4269	114.171	211.402
2.4375	74.4787	114.098	211.423
2.44	74.5305	114.025	211.444
2.4425	74.5824	113.953	211.465
2.445	74.6342	113.881	211.485
2.4475	74.6861	113.808	211.505
2.45	74.738	113.737	211.525
2.4525	74.7899	113.665	211.545
2.455	74.8418	113.593	211.565
2.4575	74.8938	113.522	211.584
2.46	74.9457	113.451	211.604
2.4625	74.9976	113.38	211.623
2.465	75.0496	113.309	211.641
2.4675	75.1015	113.238	211.66
2.47	75.1535	113.168	211.678
2.4725	75.2055	113.098	211.697
2.475	75.2575	113.028	211.715
2.4775	75.3095	112.958	211.733
2.48	75.3615	112.888	211.75
2.4825	75.4135	112.819	211.768
2.485	75.4655	112.75	211.785
2.4875	75.5175	112.681	211.802
2.49	75.5695	112.612	211.819
2.4925	75.6215	112.543	211.835
2.495	75.6736	112.475	211.852
2.4975	75.7256	112.406	211.868
2.5	75.7776	112.338	211.884
2.5025	75.8297	112.27	211.9
2.505	75.8817	112.202	211.916
2.5075	75.9338	112.135	211.931
2.51	75.9858	112.068	211.947
2.5125	76.0379	112	211.962
2.515	76.0899	111.933	211.977
2.5175	76.1419	111.867	211.992
2.52	76.194	111.8	212.006
2.5225	76.246	111.733	212.021
2.525	76.2981	111.667	212.035
2.5275	76.3501	111.601	212.049
2.53	76.4022	111.535	212.063
2.5325	76.4542	111.47	212.076
2.535	76.5062	111.404	212.09
2.5375	76.5583	111.339	212.103
2.54	76.6103	111.273	212.116
2.5425	76.6623	111.209	212.129
2.545	76.7144	111.144	212.142
2.5475	76.7664	111.079	212.155
2.55	76.8184	111.015	212.167
2.5525	76.8704	110.95	212.179
2.555	76.9224	110.886	212.191
2.5575	76.9744	110.822	212.203
2.56	77.0264	110.759	212.215
2.5625	77.0784	110.695	212.226
2.565	77.1303	110.632	212.238
2.5675	77.1823	110.569	212.249
2.57	77.2343	110.506	212.26
2.5725	77.2862	110.443	212.271
2.575	77.3381	110.38	212.282
2.5775	77.3901	110.318	212.292
2.58	77.442	110.256	212.302
2.5825	77.4939	110.194	212.313
2.585	77.5458	110.132	212.323
2.5875	77.5977	110.07	212.332
2.59	77.6496	110.008	212.342
2.5925	77.7015	109.947	212.352
2.595	77.7533	109.886	212.361
2.5975	77.8052	109.825	212.37
2.6	77.857	109.764	212.379
2.6025	77.9088	109.703	212.388
2.605	77.9606	109.643	212.397
2.6075	78.0124	109.582	212.405
2.61	78.0642	109.522	212.414
2.6125	78.116	109.462	212.422
2.615	78.1677	109.402	212.43
2.6175	78.2194	109.343	212.438
2.62	78.2712	109.283	212.445
2.6225	78.3229	109.224	212.453
2.625	78.3746	109.165	212.46
2.6275	78.4262	109.106	212.468
2.63	78.4779	109.047	212.475
2.6325	78.5295	108.989	212.482
2.635	78.5812	108.93	212.489
2.6375	78.6328	108.872	212.495
2.64	78.6843	108.814	212.502
2.6425	78.7359	108.756	212.508
2.645	78.7875	108.698	212.514
2.6475	78.839	108.641	212.52
2.65	78.8905	108.583	212.526
2.6525	78.942	108.526	212.532
2.655	78.9935	108.469	212.537
2.6575	79.0449	108.412	212.543
2.66	79.0964	108.356	212.548
2.6625	79.1478	108.299	212.553
2.665	79.1992	108.243	212.558
2.6675	79.2505	108.186	212.563
2.67	79.3019	108.13	212.568
2.6725	79.3532	108.075	212.572
2.675	79.4045	108.019	212.577
2.6775	79.4558	107.963	212.581
2.68	79.507	107.908	212.585
2.6825	79.5583	107.853	212.589
2.685	79.6095	107.798	212.593
2.6875	79.6607	107.743	212.597
2.69	79.7118	107.688	212.6
2.6925	79.763	107.634	212.603
2.695	79.8141	107.579	212.607
2.6975	79.8652	107.525	212.61
2.7	79.9162	107.471	212.613
2.7025	79.9673	107.417	212.616
2.705	80.0183	107.363	212.618
2.7075	80.0693	107.31	212.621
2.71	80.1202	107.256	212.623
2.7125	80.1712	107.203	212.626
2.715	80.2221	107.15	212.628
2.7175	80.2729	107.097	212.63
2.72	80.3238	107.045	212.632
2.7225	80.3746	106.992	212.633
2.725	80.4254	106.94	212.635
2.7275	80.4762	106.887	212.637
2.73	80.5269	106.835	212.638
2.7325	80.5776	106.783	212.639
2.735	80.6283	106.731	212.64
2.7375	80.6789	106.68	212.641
2.74	80.7295	106.628	212.642
2.7425	80.7801	106.577	212.643
2.745	80.8307	106.526	212.643
2.7475	80.8812	106.475	212.644
2.75	80.9317	106.424	212.644
2.7525	80.9822	106.374	212.644
2.755	81.0326	106.323	212.644
2.7575	81.083	106.273	212.644
2.76	81.1334	106.223	212.644
2.7625	81.1837	106.173	212.644
2.765	81.234	106.123	212.643
2.7675	81.2843	106.073	212.643
2.77	81.3345	106.023	212.642
2.7725	81.3847	105.974	212.641
2.775	81.4349	105.925	212.64
2.7775	81.485	105.876	212.639
2.78	81.5351	105.827	212.638
2.7825	81.5852	105.778	212.637
2.785	81.6352	105.729	212.635
2.7875	81.6852	105.681	212.634
2.79	81.7352	105.633	212.632
2.7925	81.7851	105.584	212.631
2.795	81.835	105.536	212.629
2.7975	81.8848	105.489	212.627
2.8	81.9346	105.441	212.625
2.8025	81.9844	105.393	212.622
2.805	82.0342	105.346	212.62
2.8075	82.0839	105.299	212.617
2.81	82.1335	105.252	212.615
2.8125	82.1832	105.205	212.612
2.815	82.2328	105.158	212.609
2.8175	82.2823	105.111	212.606
2.82	82.3318	105.065	212.603
2.8225	82.3813	105.018	212.6
2.825	82.4308	104.972	212.597
2.8275	82.4802	104.926	212.594
2.83	82.5295	104.88	212.59
2.8325	82.5789	104.835	212.587
2.835	82.6281	104.789	212.583
2.8375	82.6774	104.744	212.579
2.84	82.7266	104.698	212.575
2.8425	82.7758	104.653	212.571
2.845	82.8249	104.608	212.567
2.8475	82.874	104.563	212.563
2.85	82.923	104.519	212.558
2.8525	82.972	104.474	212.554
2.855	83.021	104.43	212.549
2.8575	83.0699	104.385	212.545
2.86	83.1188	104.341	212.54
2.8625	83.1676	104.297	212.535
2.865	83.2164	104.254	212.53
2.8675	83.2652	104.21	212.525
2.87	83.3139	104.166	212.52
2.8725	83.3625	104.123	212.515
2.875	83.4112	104.08	212.509
2.8775	83.4597	104.037	212.504
2.88	83.5083	103.994	212.498
2.8825	83.5568	103.951	212.492
2.885	83.6052	103.908	212.487
2.8875	83.6536	103.866	212.481
2.89	83.702	103.823	212.475
2.8925	83.7503	103.781	212.469
2.895	83.7986	103.739	212.462
2.8975	83.8468	103.697	212.456
2.9	83.895	103.655	212.45
2.9025	83.9431	103.614	212.443
2.905	83.9912	103.572	212.437
2.9075	84.0392	103.531	212.43
2.91	84.0872	103.489	212.423
2.9125	84.1352	103.448	212.416
2.915	84.1831	103.407	212.41
2.9175	84.231	103.367	212.402
2.92	84.2788	103.326	212.395
2.9225	84.3265	103.285	212.388
2.925	84.3743	103.245	212.381
2.9275	84.4219	103.205	212.373
2.93	84.4696	103.165	212.366
2.9325	84.5171	103.125	212.358
2.935	84.5647	103.085	212.351
2.9375	84.6121	103.045	212.343
2.94	84.6596	103.005	212.335
2.9425	84.707	102.966	212.327
2.945	84.7543	102.927	212.319
2.9475	84.8016	102.888	212.311
2.95	84.8488	102.849	212.303
2.9525	84.896	102.81	212.294
2.955	84.9431	102.771	212.286
2.9575	84.9902	102.732	212.277
2.96	85.0373	102.694	212.269
2.9625	85.0843	102.655	212.26
2.965	85.1312	102.617	212.252
2.9675	85.1781	102.579	212.243
2.97	85.2249	102.541	212.234
2.9725	85.2717	102.503	212.225
2.975	85.3185	102.466	212.216
2.9775	85.3652	102.428	212.207
2.98	85.4118	102.391	212.197
2.9825	85.4584	102.353	212.188
2.985	85.5049	102.316	212.179
2.9875	85.5514	102.279	212.169
2.99	85.5978	102.242	212.16
2.9925	85.6442	102.206	212.15
2.995	85.6905	102.169	212.14
2.9975	85.7368	102.133	212.131
3	85.783	102.096	212.121
3.0025	85.8292	102.06	212.111
3.005	85.8753	102.024	212.101
3.0075	85.9214	101.988	212.091
3.01	85.9674	101.952	212.08
3.0125	86.0134	101.916	212.07
3.015	86.0593	101.881	212.06
3.0175	86.1051	101.845	212.049
3.02	86.1509	101.81	212.039
3.0225	86.1967	101.775	212.028
3.025	86.2424	101.74	212.018
3.0275	86.288	101.705	212.007
3.03	86.3336	101.67	211.996
3.0325	86.3791	101.635	211.985
3.035	86.4246	101.601	211.974
3.0375	86.47	101.567	211.963
3.04	86.5154	101.532	211.952
3.0425	86.5607	101.498	211.941
3.045	86.606	101.464	211.93
3.0475	86.6512	101.43	211.919
3.05	86.6963	101.396	211.907
3.0525	86.7414	101.363	211.896
3.055	86.7864	101.329	211.884
3.0575	86.8314	101.296	211.873
3.06	86.8763	101.262	211.861
3.0625	86.9212	101.229	211.85
3.065	86.966	101.196	211.838
3.0675	87.0107	101.163	211.826
3.07	87.0554	101.131	211.814
3.0725	87.1001	101.098	211.802
3.075	87.1447	101.065	211.79
3.0775	87.1892	101.033	211.778
3.08	87.2337	101.001	211.766
3.0825	87.2781	100.968	211.753
3.085	87.3224	100.936	211.741
3.0875	87.3667	100.904	211.729
3.09	87.411	100.873	211.716
3.0925	87.4552	100.841	211.704
3.095	87.4993	100.809	211.691
3.0975	87.5433	100.778	211.679
3.1	87.5874	100.747	211.666
3.1025	87.6313	100.715	211.653
3.105	87.6752	100.684	211.64
3.1075	87.719	100.653	211.628
3.11	87.7628	100.623	211.615
3.1125	87.8065	100.592	211.602
3.115	87.8502	100.561	211.589
3.1175	87.8938	100.531	211.576
3.12	87.9373	100.5	211.562
3.1225	87.9808	100.47	211.549
3.125	88.0242	100.44	211.536
3.1275	88.0676	100.41	211.522
3.13	88.1109	100.38	211.509
3.1325	88.1541	100.35	211.496
3.135	88.1973	100.321	211.482
3.1375	88.2404	100.291	211.468
3.14	88.2835	100.262	211.455
3.1425	88.3265	100.232	211.441
3.145	88.3694	100.203	211.427
3.1475	88.4123	100.174	211.414
3.15	88.4551	100.145	211.4
3.1525	88.4979	100.116	211.386
3.155	88.5406	100.088	211.372
3.1575	88.5832	100.059	211.358
3.16	88.6258	100.03	211.344
3.1625	88.6683	100.002	211.33
3.165	88.7108	99.9738	211.315
3.1675	88.7532	99.9456	211.301
3.17	88.7955	99.9176	211.287
3.1725	88.8378	99.8896	211.273
3.175	88.88	99.8618	211.258
3.1775	88.9221	99.8341	211.244
3.18	88.9642	99.8065	211.229
3.1825	89.0063	99.779	211.215
3.185	89.0482	99.7517	211.2
3.1875	89.0901	99.7244	211.185
3.19	89.132	99.6973	211.171
3.1925	89.1737	99.6702	211.156
3.195	89.2155	99.6433	211.141
3.1975	89.2571	99.6165	211.126
3.2	89.2987	99.5898	211.111
3.2025	89.3402	99.5632	211.097
3.205	89.3817	99.5367	211.082
3.2075	89.4231	99.5104	211.067
3.21	89.4644	99.4841	211.051
3.2125	89.5057	99.458	211.036
3.215	89.5469	99.4319	211.021
3.2175	89.5881	99.406	211.006
3.22	89.6292	99.3802	210.991
3.2225	89.6702	99.3545	210.975
3.225	89.7111	99.3289	210.96
3.2275	89.752	99.3034	210.945
3.23	89.7929	99.278	210.929
3.2325	89.8336	99.2527	210.914
3.235	89.8743	99.2275	210.898
3.2375	89.915	99.2025	210.883
3.24	89.9555	99.1775	210.867
3.2425	89.9961	99.1527	210.851
3.245	90.0365	99.1279	210.836
3.2475	90.0769	99.1033	210.82
3.25	90.1172	99.0787	210.804
3.2525	90.1575	99.0543	210.788
3.255	90.1977	99.03	210.772
3.2575	90.2378	99.0058	210.756
3.26	90.2778	98.9817	210.74
3.2625	90.3178	98.9577	210.724
3.265	90.3578	98.9338	210.708
3.2675	90.3976	98.91	210.692
3.27	90.4374	98.8863	210.676
3.2725	90.4772	98.8627	210.66
3.275	90.5169	98.8392	210.644
3.2775	90.5565	98.8158	210.628
3.28	90.596	98.7925	210.611
3.2825	90.6355	98.7694	210.595
3.285	90.6749	98.7463	210.579
3.2875	90.7142	98.7233	210.562
3.29	90.7535	98.7005	210.546
3.2925	90.7927	98.6777	210.53
3.295	90.8319	98.655	210.513
3.2975	90.871	98.6325	210.497
3.3	90.91	98.61	210.48
3.3025	90.9489	98.5876	210.463
3.305	90.9878	98.5654	210.447
3.3075	91.0266	98.5432	210.43
3.31	91.0654	98.5212	210.413
3.3125	91.1041	98.4992	210.397
3.315	91.1427	98.4774	210.38
3.3175	91.1813	98.4556	210.363
3.32	91.2197	98.434	210.346
3.3225	91.2582	98.4124	210.329
3.325	91.2965	98.3909	210.313
3.3275	91.3348	98.3696	210.296
3.33	91.373	98.3483	210.279
3.3325	91.4112	98.3272	210.262
3.335	91.4493	98.3061	210.245
3.3375	91.4873	98.2851	210.228
3.34	91.5252	98.2643	210.21
3.3425	91.5631	98.2435	210.193
3.345	91.601	98.2228	210.176
3.3475	91.6387	98.2022	210.159
3.35	91.6764	98.1818	210.142
3.3525	91.714	98.1614	210.125
3.355	91.7516	98.1411	210.107
3.3575	91.7891	98.1209	210.09
3.36	91.8265	98.1008	210.073
3.3625	91.8638	98.0808	210.055
3.365	91.9011	98.0609	210.038
3.3675	91.9383	98.0411	210.021
3.37	91.9755	98.0214	210.003
3.3725	92.0126	98.0018	209.986
3.375	92.0496	97.9823	209.968
3.3775	92.0865	97.9628	209.951
3.38	92.1234	97.9435	209.933
3.3825	92.1602	97.9243	209.916
3.385	92.1969	97.9051	209.898
3.3875	92.2336	97.8861	209.88
3.39	92.2702	97.8671	209.863
3.3925	92.3068	97.8482	209.845
3.395	92.3432	97.8295	209.827
3.3975	92.3796	97.8108	209.81
3.4	92.416	97.7922	209.792
3.4025	92.4522	97.7737	209.774
3.405	92.4884	97.7553	209.756
3.4075	92.5246	97.737	209.738
3.41	92.5606	97.7188	209.721
3.4125	92.5966	97.7006	209.703
3.415	92.6326	97.6826	209.685
3.4175	92.6684	97.6646	209.667
3.42	92.7042	97.6468	209.649
3.4225	92.7399	97.629	209.631
3.425	92.7756	97.6114	209.613
3.4275	92.8112	97.5938	209.595
3.43	92.8467	97.5763	209.577
3.4325	92.8821	97.5589	209.559
3.435	92.9175	97.5416	209.541
3.4375	92.9528	97.5243	209.523
3.44	92.988	97.5072	209.505
3.4425	93.0232	97.4901	209.487
3.445	93.0583	97.4732	209.469
3.4475	93.0934	97.4563	209.45
3.45	93.1283	97.4395	209.432
3.4525	93.1632	97.4228	209.414
3.455	93.198	97.4062	209.396
3.4575	93.2328	97.3897	209.378
3.46	93.2675	97.3733	209.359
3.4625	93.3021	97.3569	209.341
3.465	93.3367	97.3407	209.323
3.4675	93.3711	97.3245	209.304
3.47	93.4056	97.3084	209.286
3.4725	93.4399	97.2924	209.268
3.475	93.4742	97.2765	209.249
3.4775	93.5084	97.2607	209.231
3.48	93.5425	97.2449	209.213
3.4825	93.5766	97.2293	209.194
3.485	93.6106	97.2137	209.176
3.4875	93.6445	97.1982	209.157
3.49	93.6784	97.1828	209.139
3.4925	93.7122	97.1675	209.12
3.495	93.7459	97.1523	209.102
3.4975	93.7795	97.1371	209.083
3.5	93.8131	97.122	209.065
3.5025	93.8466	97.1071	209.046
3.505	93.8801	97.0922	209.028
3.5075	93.9135	97.0774	209.009
3.51	93.9468	97.0626	208.991
3.5125	93.98	97.048	208.972
3.515	94.0132	97.0334	208.953
3.5175	94.0463	97.0189	208.935
3.52	94.0793	97.0045	208.916
3.5225	94.1122	96.9902	208.898
3.525	94.1451	96.976	208.879
3.5275	94.1779	96.9618	208.86
3.53	94.2107	96.9478	208.842
3.5325	94.2434	96.9338	208.823
3.535	94.276	96.9199	208.804
3.5375	94.3085	96.906	208.785
3.54	94.341	96.8923	208.767
3.5425	94.3734	96.8786	208.748
3.545	94.4057	96.865	208.729
3.5475	94.438	96.8515	208.71
3.55	94.4702	96.8381	208.692
3.5525	94.5023	96.8247	208.673
3.555	94.5344	96.8115	208.654
3.5575	94.5663	96.7983	208.635
3.56	94.5982	96.7852	208.617
3.5625	94.6301	96.7721	208.598
3.565	94.6619	96.7592	208.579
3.5675	94.6936	96.7463	208.56
3.57	94.7252	96.7335	208.541
3.5725	94.7568	96.7208	208.522
3.575	94.7883	96.7082	208.504
3.5775	94.8197	96.6956	208.485
3.58	94.851	96.6831	208.466
3.5825	94.8823	96.6707	208.447
3.585	94.9135	96.6584	208.428
3.5875	94.9447	96.6461	208.409
3.59	94.9758	96.634	208.39
3.5925	95.0068	96.6219	208.371
3.595	95.0377	96.6098	208.352
3.5975	95.0686	96.5979	208.334
3.6	95.0994	96.586	208.315
3.6025	95.1301	96.5742	208.296
3.605	95.1608	96.5625	208.277
3.6075	95.1913	96.5509	208.258
3.61	95.2219	96.5393	208.239
3.6125	95.2523	96.5278	208.22
3.615	95.2827	96.5164	208.201
3.6175	95.313	96.505	208.182
3.62	95.3432	96.4938	208.163
3.6225	95.3734	96.4826	208.144
3.625	95.4035	96.4714	208.125
3.6275	95.4335	96.4604	208.106
3.63	95.4635	96.4494	208.087
3.6325	95.4934	96.4385	208.068
3.635	95.5232	96.4277	208.049
3.6375	95.5529	96.4169	208.03
3.64	95.5826	96.4062	208.011
3.6425	95.6122	96.3956	207.992
3.645	95.6418	96.3851	207.973
3.6475	95.6712	96.3746	207.954
3.65	95.7006	96.3642	207.935
3.6525	95.73	96.3539	207.916
3.655	95.7592	96.3437	207.897
3.6575	95.7884	96.3335	207.878
3.66	95.8175	96.3234	207.859
3.6625	95.8466	96.3133	207.84
3.665	95.8756	96.3034	207.821
3.6675	95.9045	96.2935	207.802
3.67	95.9333	96.2837	207.783
3.6725	95.9621	96.2739	207.764
3.675	95.9908	96.2642	207.745
3.6775	96.0194	96.2546	207.726
3.68	96.048	96.2451	207.707
3.6825	96.0765	96.2356	207.688
3.685	96.1049	96.2262	207.669
3.6875	96.1333	96.2169	207.65
3.69	96.1616	96.2076	207.631
3.6925	96.1898	96.1984	207.612
3.695	96.2179	96.1893	207.593
3.6975	96.246	96.1802	207.574
3.7	96.274	96.1712	207.555
3.7025	96.302	96.1623	207.536
3.705	96.3298	96.1534	207.517
3.7075	96.3576	96.1446	207.498
3.71	96.3854	96.1359	207.479
3.7125	96.413	96.1273	207.46
3.715	96.4406	96.1187	207.441
3.7175	96.4681	96.1102	207.422
3.72	96.4956	96.1017	207.403
3.7225	96.523	96.0933	207.384
3.725	96.5503	96.085	207.365
3.7275	96.5775	96.0767	207.346
3.73	96.6047	96.0686	207.327
3.7325	96.6318	96.0604	207.308
3.735	96.6589	96.0524	207.289
3.7375	96.6858	96.0444	207.27
3.74	96.7127	96.0365	207.251
3.7425	96.7396	96.0286	207.232
3.745	96.7663	96.0208	207.213
3.7475	96.793	96.0131	207.194
3.75	96.8196	96.0054	207.175
3.7525	96.8462	95.9978	207.156
3.755	96.8727	95.9903	207.137
3.7575	96.8991	95.9828	207.118
3.76	96.9254	95.9754	207.099
3.7625	96.9517	95.968	207.08
3.765	96.9779	95.9608	207.061
3.7675	97.0041	95.9535	207.042
3.77	97.0301	95.9464	207.023
3.7725	97.0561	95.9393	207.005
3.775	97.0821	95.9323	206.986
3.7775	97.1079	95.9253	206.967
3.78	97.1337	95.9184	206.948
3.7825	97.1595	95.9116	206.929
3.785	97.1851	95.9048	206.91
3.7875	97.2107	95.8981	206.891
3.79	97.2362	95.8914	206.872
3.7925	97.2617	95.8848	206.854
3.795	97.2871	95.8783	206.835
3.7975	97.3124	95.8718	206.816
3.8	97.3376	95.8654	206.797
3.8025	97.3628	95.859	206.778
3.805	97.3879	95.8528	206.759
3.8075	97.413	95.8465	206.741
3.81	97.4379	95.8404	206.722
3.8125	97.4628	95.8342	206.703
3.815	97.4877	95.8282	206.684
3.8175	97.5125	95.8222	206.665
3.82	97.5372	95.8163	206.647
3.8225	97.5618	95.8104	206.628
3.825	97.5864	95.8046	206.609
3.8275	97.6108	95.7988	206.59
3.83	97.6353	95.7932	206.572
3.8325	97.6596	95.7875	206.553
3.835	97.6839	95.7819	206.534
3.8375	97.7082	95.7764	206.515
3.84	97.7323	95.771	206.497
3.8425	97.7564	95.7656	206.478
3.845	97.7804	95.7602	206.459
3.8475	97.8044	95.7549	206.441
3.85	97.8283	95.7497	206.422
3.8525	97.8521	95.7445	206.403
3.855	97.8758	95.7394	206.385
3.8575	97.8995	95.7344	206.366
3.86	97.9231	95.7294	206.347
3.8625	97.9467	95.7244	206.329
3.865	97.9702	95.7195	206.31
3.8675	97.9936	95.7147	206.292
3.87	98.0169	95.7099	206.273
3.8725	98.0402	95.7052	206.255
3.875	98.0634	95.7006	206.236
3.8775	98.0865	95.696	206.217
3.88	98.1096	95.6914	206.199
3.8825	98.1326	95.6869	206.18
3.885	98.1556	95.6825	206.162
3.8875	98.1784	95.6781	206.143
3.89	98.2013	95.6738	206.125
3.8925	98.224	95.6695	206.107
3.895	98.2467	95.6653	206.088
3.8975	98.2693	95.6611	206.07
3.9	98.2918	95.657	206.051
3.9025	98.3143	95.6529	206.033
3.905	98.3367	95.6489	206.014
3.9075	98.359	95.645	205.996
3.91	98.3813	95.6411	205.978
3.9125	98.4035	95.6372	205.959
3.915	98.4257	95.6334	205.941
3.9175	98.4477	95.6297	205.923
3.92	98.4697	95.626	205.904
3.9225	98.4917	95.6224	205.886
3.925	98.5135	95.6188	205.868
3.9275	98.5354	95.6153	205.849
3.93	98.5571	95.6118	205.831
3.9325	98.5788	95.6084	205.813
3.935	98.6004	95.605	205.795
3.9375	98.6219	95.6017	205.776
3.94	98.6434	95.5984	205.758
3.9425	98.6648	95.5952	205.74
3.945	98.6862	95.592	205.722
3.9475	98.7074	95.5889	205.704
3.95	98.7286	95.5859	205.685
3.9525	98.7498	95.5829	205.667
3.955	98.7709	95.5799	205.649
3.9575	98.7919	95.577	205.631
3.96	98.8128	95.5741	205.613
3.9625	98.8337	95.5713	205.595
3.965	98.8545	95.5685	205.577
3.9675	98.8753	95.5658	205.559
3.97	98.896	95.5632	205.541
3.9725	98.9166	95.5606	205.523
3.975	98.9372	95.558	205.505
3.9775	98.9577	95.5555	205.487
3.98	98.9781	95.553	205.469
3.9825	98.9985	95.5506	205.451
3.985	99.0188	95.5482	205.433
3.9875	99.039	95.5459	205.415
3.99	99.0591	95.5436	205.397
3.9925	99.0793	95.5414	205.379
3.995	99.0993	95.5392	205.361
3.9975	99.1193	95.5371	205.344
4	99.1392	95.535	205.326
4.0025	99.159	95.533	205.308
4.005	99.1788	95.531	205.29
4.0075	99.1985	95.5291	205.272
4.01	99.2182	95.5272	205.255
4.0125	99.2377	95.5253	205.237
4.015	99.2573	95.5236	205.219
4.0175	99.2767	95.5218	205.201
4.02	99.2961	95.5201	205.184
4.0225	99.3154	95.5184	205.166
4.025	99.3347	95.5168	205.148
4.0275	99.3539	95.5153	205.131
4.03	99.373	95.5137	205.113
4.0325	99.3921	95.5123	205.096
4.035	99.4111	95.5108	205.078
4.0375	99.4301	95.5095	205.06
4.04	99.4489	95.5081	205.043
4.0425	99.4678	95.5068	205.025
4.045	99.4865	95.5056	205.008
4.0475	99.5052	95.5044	204.99
4.05	99.5238	95.5032	204.973
4.0525	99.5424	95.5021	204.956
4.055	99.5609	95.501	204.938
4.0575	99.5793	95.5	204.921
4.06	99.5977	95.499	204.903
4.0625	99.616	95.4981	204.886
4.065	99.6343	95.4972	204.869
4.0675	99.6525	95.4963	204.851
4.07	99.6706	95.4955	204.834
4.0725	99.6886	95.4948	204.817
4.075	99.7066	95.494	204.799
4.0775	99.7246	95.4934	204.782
4.08	99.7424	95.4927	204.765
4.0825	99.7602	95.4921	204.748
4.085	99.778	95.4916	204.73
4.0875	99.7957	95.4911	204.713
4.09	99.8133	95.4906	204.696
4.0925	99.8308	95.4902	204.679
4.095	99.8483	95.4898	204.662
4.0975	99.8658	95.4895	204.645
4.1	99.8831	95.4892	204.628
4.1025	99.9005	95.4889	204.611
4.105	99.9177	95.4887	204.594
4.1075	99.9349	95.4885	204.577
4.11	99.952	95.4884	204.56
4.1125	99.9691	95.4883	204.543
4.115	99.9861	95.4882	204.526
4.1175	100.003	95.4882	204.509
4.12	100.02	95.4882	204.492
4.1225	100.037	95.4883	204.475
4.125	100.053	95.4884	204.458
4.1275	100.07	95.4886	204.441
4.13	100.087	95.4887	204.424
4.1325	100.103	95.489	204.408
4.135	100.12	95.4892	204.391
4.1375	100.136	95.4895	204.374
4.14	100.153	95.4899	204.357
4.1425	100.169	95.4903	204.341
4.145	100.185	95.4907	204.324
4.1475	100.202	95.4912	204.307
4.15	100.218	95.4917	204.291
4.1525	100.234	95.4922	204.274
4.155	100.25	95.4928	204.257
4.1575	100.266	95.4934	204.241
4.16	100.282	95.494	204.224
4.1625	100.297	95.4947	204.208
4.165	100.313	95.4955	204.191
4.1675	100.329	95.4962	204.175
4.17	100.345	95.497	204.158
4.1725	100.36	95.4979	204.142
4.175	100.376	95.4988	204.125
4.1775	100.391	95.4997	204.109
4.18	100.407	95.5006	204.093
4.1825	100.422	95.5016	204.076
4.185	100.437	95.5026	204.06
4.1875	100.453	95.5037	204.044
4.19	100.468	95.5048	204.027
4.1925	100.483	95.5059	204.011
4.195	100.498	95.5071	203.995
4.1975	100.513	95.5083	203.979
4.2	100.528	95.5096	203.963
4.2025	100.543	95.5108	203.946
4.205	100.558	95.5121	203.93
4.2075	100.572	95.5135	203.914
4.21	100.587	95.5149	203.898
4.2125	100.602	95.5163	203.882
4.215	100.616	95.5178	203.866
4.2175	100.631	95.5192	203.85
4.22	100.645	95.5208	203.834
4.2225	100.66	95.5223	203.818
4.225	100.674	95.5239	203.802
4.2275	100.688	95.5255	203.786
4.23	100.703	95.5272	203.77
4.2325	100.717	95.5289	203.754
4.235	100.731	95.5306	203.738
4.2375	100.745	95.5324	203.722
4.24	100.759	95.5342	203.707
4.2425	100.773	95.536	203.691
4.245	100.787	95.5379	203.675
4.2475	100.801	95.5398	203.659
4.25	100.815	95.5417	203.644
4.2525	100.828	95.5437	203.628
4.255	100.842	95.5457	203.612
4.2575	100.856	95.5477	203.597
4.26	100.869	95.5498	203.581
4.2625	100.883	95.5518	203.565
4.265	100.896	95.554	203.55
4.2675	100.909	95.5561	203.534
4.27	100.923	95.5583	203.519
4.2725	100.936	95.5605	203.503
4.275	100.949	95.5628	203.488
4.2775	100.962	95.5651	203.472
4.28	100.976	95.5674	203.457
4.2825	100.989	95.5697	203.442
4.285	101.002	95.5721	203.426
4.2875	101.015	95.5745	203.411
4.29	101.027	95.577	203.396
4.2925	101.04	95.5794	203.38
4.295	101.053	95.5819	203.365
4.2975	101.066	95.5845	203.35
4.3	101.078	95.587	203.335
4.3025	101.091	95.5896	203.319
4.305	101.103	95.5922	203.304
4.3075	101.116	95.5949	203.289
4.31	101.128	95.5976	203.274
4.3125	101.141	95.6003	203.259
4.315	101.153	95.603	203.244
4.3175	101.165	95.6058	203.229
4.32	101.178	95.6086	203.214
4.3225	101.19	95.6114	203.199
4.325	101.202	95.6143	203.184
4.3275	101.214	95.6172	203.169
4.33	101.226	95.6201	203.154
4.3325	101.238	95.623	203.139
4.335	101.25	95.626	203.124
4.3375	101.261	95.629	203.11
4.34	101.273	95.632	203.095
4.3425	101.285	95.6351	203.08
4.345	101.297	95.6382	203.065
4.3475	101.308	95.6413	203.05
4.35	101.32	95.6444	203.036
4.3525	101.331	95.6476	203.021
4.355	101.343	95.6508	203.006
4.3575	101.354	95.654	202.992
4.36	101.365	95.6573	202.977
4.3625	101.377	95.6606	202.963
4.365	101.388	95.6639	202.948
4.3675	101.399	95.6672	202.934
4.37	101.41	95.6706	202.919
4.3725	101.421	95.6739	202.905
4.375	101.432	95.6774	202.89
4.3775	101.443	95.6808	202.876
4.38	101.454	95.6843	202.861
4.3825	101.465	95.6878	202.847
4.385	101.476	95.6913	202.833
4.3875	101.487	95.6948	202.818
4.39	101.497	95.6984	202.804
4.3925	101.508	95.702	202.79
4.395	101.519	95.7056	202.776
4.3975	101.529	95.7092	202.762
4.4	101.54	95.7129	202.747
4.4025	101.55	95.7166	202.733
4.405	101.561	95.7203	202.719
4.4075	101.571	95.7241	202.705
4.41	101.581	95.7279	202.691
4.4125	101.591	95.7317	202.677
4.415	101.602	95.7355	202.663
4.4175	101.612	95.7393	202.649
4.42	101.622	95.7432	202.635
4.4225	101.632	95.7471	202.621
4.425	101.642	95.751	202.607
4.4275	101.652	95.7549	202.593
4.43	101.662	95.7589	202.58
4.4325	101.671	95.7629	202.566
4.435	101.681	95.7669	202.552
4.4375	101.691	95.771	202.538
4.44	101.701	95.775	202.524
4.4425	101.71	95.7791	202.511
4.445	101.72	95.7832	202.497
4.4475	101.729	95.7873	202.483
4.45	101.739	95.7915	202.47
4.4525	101.748	95.7957	202.456
4.455	101.758	95.7999	202.443
4.4575	101.767	95.8041	202.429
4.46	101.776	95.8083	202.416
4.4625	101.785	95.8126	202.402
4.465	101.795	95.8169	202.389
4.4675	101.804	95.8212	202.375
4.47	101.813	95.8255	202.362
4.4725	101.822	95.8299	202.348
4.475	101.831	95.8342	202.335
4.4775	101.84	95.8386	202.322
4.48	101.848	95.8431	202.308
4.4825	101.857	95.8475	202.295
4.485	101.866	95.852	202.282
4.4875	101.875	95.8564	202.269
4.49	101.883	95.8609	202.256
4.4925	101.892	95.8655	202.242
4.495	101.901	95.87	202.229
4.4975	101.909	95.8746	202.216
4.5	101.918	95.8792	202.203
4.5025	101.926	95.8838	202.19
4.505	101.935	95.8884	202.177
4.5075	101.943	95.893	202.164
4.51	101.951	95.8977	202.151
4.5125	101.959	95.9024	202.138
4.515	101.968	95.9071	202.125
4.5175	101.976	95.9118	202.112
4.52	101.984	95.9166	202.1
4.5225	101.992	95.9214	202.087
4.525	102	95.9261	202.074
4.5275	102.008	95.9309	202.061
4.53	102.016	95.9358	202.048
4.5325	102.024	95.9406	202.036
4.535	102.031	95.9455	202.023
4.5375	102.039	95.9504	202.01
4.54	102.047	95.9553	201.998
4.5425	102.055	95.9602	201.985
4.545	102.062	95.9651	201.973
4.5475	102.07	95.9701	201.96
4.55	102.077	95.9751	201.948
4.5525	102.085	95.98	201.935
4.555	102.092	95.9851	201.923
4.5575	102.1	95.9901	201.91
4.56	102.107	95.9951	201.898
4.5625	102.114	96.0002	201.885
4.565	102.122	96.0053	201.873
4.5675	102.129	96.0104	201.861
4.57	102.136	96.0155	201.848
4.5725	102.143	96.0206	201.836
4.575	102.15	96.0258	201.824
4.5775	102.157	96.031	201.812
4.58	102.164	96.0362	201.8
4.5825	102.171	96.0414	201.787
4.585	102.178	96.0466	201.775
4.5875	102.185	96.0518	201.763
4.59	102.192	96.0571	201.751
4.5925	102.198	96.0623	201.739
4.595	102.205	96.0676	201.727
4.5975	102.212	96.0729	201.715
4.6	102.218	96.0783	201.703
4.6025	102.225	96.0836	201.691
4.605	102.232	96.0889	201.679
4.6075	102.238	96.0943	201.668
4.61	102.245	96.0997	201.656
4.6125	102.251	96.1051	201.644
4.615	102.257	96.1105	201.632
4.6175	102.264	96.1159	201.62
4.62	102.27	96.1214	201.609
4.6225	102.276	96.1269	201.597
4.625	102.282	96.1323	201.585
4.6275	102.288	96.1378	201.574
4.63	102.295	96.1433	201.562
4.6325	102.301	96.1489	201.551
4.635	102.307	96.1544	201.539
4.6375	102.313	96.1599	201.527
4.64	102.319	96.1655	201.516
4.6425	102.324	96.1711	201.504
4.645	102.33	96.1767	201.493
4.6475	102.336	96.1823	201.482
4.65	102.342	96.1879	201.47
4.6525	102.348	96.1936	201.459
4.655	102.353	96.1992	201.448
4.6575	102.359	96.2049	201.436
4.66	102.364	96.2106	201.425
4.6625	102.37	96.2163	201.414
4.665	102.375	96.222	201.403
4.6675	102.381	96.2277	201.391
4.67	102.386	96.2334	201.38
4.6725	102.392	96.2392	201.369
4.675	102.397	96.2449	201.358
4.6775	102.402	96.2507	201.347
4.68	102.408	96.2565	201.336
4.6825	102.413	96.2623	201.325
4.685	102.418	96.2681	201.314
4.6875	102.423	96.2739	201.303
4.69	102.428	96.2798	201.292
4.6925	102.433	96.2856	201.281
4.695	102.438	96.2915	201.27
4.6975	102.443	96.2974	201.259
4.7	102.448	96.3032	201.249
4.7025	102.453	96.3091	201.238
4.705	102.458	96.3151	201.227
4.7075	102.463	96.321	201.216
4.71	102.468	96.3269	201.206
4.7125	102.472	96.3329	201.195
4.715	102.477	96.3388	201.184
4.7175	102.482	96.3448	201.174
4.72	102.486	96.3508	201.163
4.7225	102.491	96.3568	201.152
4.725	102.495	96.3628	201.142
4.7275	102.5	96.3688	201.131
4.73	102.504	96.3748	201.121
4.7325	102.509	96.3809	201.11
4.735	102.513	96.3869	201.1
4.7375	102.517	96.393	201.09
4.74	102.522	96.399	201.079
4.7425	102.526	96.4051	201.069
4.745	102.53	96.4112	201.059
4.7475	102.534	96.4173	201.048
4.75	102.538	96.4234	201.038
4.7525	102.543	96.4296	201.028
4.755	102.547	96.4357	201.018
4.7575	102.551	96.4418	201.008
4.76	102.555	96.448	200.997
4.7625	102.559	96.4542	200.987
4.765	102.562	96.4603	200.977
4.7675	102.566	96.4665	200.967
4.77	102.57	96.4727	200.957
4.7725	102.574	96.4789	200.947
4.775	102.578	96.4851	200.937
4.7775	102.581	96.4914	200.927
4.78	102.585	96.4976	200.917
4.7825	102.589	96.5038	200.907
4.785	102.592	96.5101	200.898
4.7875	102.596	96.5163	200.888
4.79	102.599	96.5226	200.878
4.7925	102.603	96.5289	200.868
4.795	102.606	96.5352	200.858
4.7975	102.61	96.5415	200.849
4.8	102.613	96.5478	200.839
4.8025	102.617	96.5541	200.829
4.805	102.62	96.5604	200.82
4.8075	102.623	96.5667	200.81
4.81	102.626	96.5731	200.8
4.8125	102.63	96.5794	200.791
4.815	102.633	96.5858	200.781
4.8175	102.636	96.5921	200.772
4.82	102.639	96.5985	200.762
4.8225	102.642	96.6049	200.753
4.825	102.645	96.6113	200.744
4.8275	102.648	96.6177	200.734
4.83	102.651	96.6241	200.725
4.8325	102.654	96.6305	200.715
4.835	102.657	96.6369	200.706
4.8375	102.66	96.6433	200.697
4.84	102.663	96.6497	200.688
4.8425	102.665	96.6562	200.678
4.845	102.668	96.6626	200.669
4.8475	102.671	96.6691	200.66
4.85	102.674	96.6755	200.651
4.8525	102.676	96.682	200.642
4.855	102.679	96.6885	200.633
4.8575	102.681	96.6949	200.624
4.86	102.684	96.7014	200.615
4.8625	102.686	96.7079	200.606
4.865	102.689	96.7144	200.597
4.8675	102.691	96.7209	200.588
4.87	102.694	96.7274	200.579
4.8725	102.696	96.7339	200.57
4.875	102.698	96.7405	200.561
4.8775	102.701	96.747	200.552
4.88	102.703	96.7535	200.543
4.8825	102.705	96.7601	200.535
4.885	102.708	96.7666	200.526
4.8875	102.71	96.7732	200.517
4.89	102.712	96.7797	200.508
4.8925	102.714	96.7863	200.5
4.895	102.716	96.7929	200.491
4.8975	102.718	96.7994	200.483
4.9	102.72	96.806	200.474
4.9025	102.722	96.8126	200.465
4.905	102.724	96.8192	200.457
4.9075	102.726	96.8258	200.448
4.91	102.728	96.8324	200.44
4.9125	102.73	96.839	200.431
4.915	102.731	96.8456	200.423
4.9175	102.733	96.8522	200.415
4.92	102.735	96.8588	200.406
4.9225	102.737	96.8655	200.398
4.925	102.738	96.8721	200.389
4.9275	102.74	96.8787	200.381
4.93	102.742	96.8854	200.373
4.9325	102.743	96.892	200.365
4.935	102.745	96.8987	200.356
4.9375	102.746	96.9053	200.348
4.94	102.748	96.912	200.34
4.9425	102.749	96.9186	200.332
4.945	102.751	96.9253	200.324
4.9475	102.752	96.932	200.316
4.95	102.754	96.9386	200.308
4.9525	102.755	96.9453	200.3
4.955	102.756	96.952	200.292
4.9575	102.758	96.9587	200.284
4.96	102.759	96.9654	200.276
4.9625	102.76	96.972	200.268
4.965	102.761	96.9787	200.26
4.9675	102.762	96.9854	200.252
4.97	102.764	96.9921	200.244
4.9725	102.765	96.9988	200.237
4.975	102.766	97.0055	200.229
4.9775	102.767	97.0122	200.221
4.98	102.768	97.019	200.213
4.9825	102.769	97.0257	200.206
4.985	102.77	97.0324	200.198
4.9875	102.771	97.0391	200.19
4.99	102.772	97.0458	200.183
4.9925	102.772	97.0526	200.175
4.995	102.773	97.0593	200.167
4.9975	102.774	97.066	200.16
5	102.775	97.0728	200.152
5.0025	102.776	97.0795	200.145
5.005	102.776	97.0862	200.137
5.0075	102.777	97.093	200.13
5.01	102.778	97.0997	200.123
5.0125	102.778	97.1065	200.115
5.015	102.779	97.1132	200.108
5.0175	102.78	97.1199	200.1
5.02	102.78	97.1267	200.093
5.0225	102.781	97.1334	200.086
5.025	102.781	97.1402	200.079
5.0275	102.782	97.147	200.071
5.03	102.782	97.1537	200.064
5.0325	102.783	97.1605	200.057
5.035	102.783	97.1672	200.05
5.0375	102.783	97.174	200.043
5.04	102.784	97.1808	200.036
5.0425	102.784	97.1875	200.028
5.045	102.784	97.1943	200.021
5.0475	102.785	97.201	200.014
5.05	102.785	97.2078	200.007
5.0525	102.785	97.2146	200
5.055	102.785	97.2214	199.993
5.0575	102.785	97.2281	199.987
5.06	102.785	97.2349	199.98
5.0625	102.786	97.2417	199.973
5.065	102.786	97.2484	199.966
5.0675	102.786	97.2552	199.959
5.07	102.786	97.262	199.952
5.0725	102.786	97.2688	199.945
5.075	102.786	97.2755	199.939
5.0775	102.786	97.2823	199.932
5.08	102.786	97.2891	199.925
5.0825	102.785	97.2959	199.919
5.085	102.785	97.3026	199.912
5.0875	102.785	97.3094	199.905
5.09	102.785	97.3162	199.899
5.0925	102.785	97.323	199.892
5.095	102.785	97.3297	199.886
5.0975	102.784	97.3365	199.879
5.1	102.784	97.3433	199.873
5.1025	102.784	97.3501	199.866
5.105	102.783	97.3568	199.86
5.1075	102.783	97.3636	199.853
5.11	102.783	97.3704	199.847
5.1125	102.782	97.3772	199.841
5.115	102.782	97.3839	199.834
5.1175	102.781	97.3907	199.828
5.12	102.781	97.3975	199.822
5.1225	102.78	97.4042	199.815
5.125	102.78	97.411	199.809
5.1275	102.779	97.4178	199.803
5.13	102.779	97.4246	199.797
5.1325	102.778	97.4313	199.79
5.135	102.778	97.4381	199.784
5.1375	102.777	97.4449	199.778
5.14	102.776	97.4516	199.772
5.1425	102.776	97.4584	199.766
5.145	102.775	97.4651	199.76
5.1475	102.774	97.4719	199.754
5.15	102.773	97.4787	199.748
5.1525	102.773	97.4854	199.742
5.155	102.772	97.4922	199.736
5.1575	102.771	97.4989	199.73
5.16	102.77	97.5057	199.724
5.1625	102.769	97.5124	199.718
5.165	102.768	97.5192	199.712
5.1675	102.767	97.5259	199.707
5.17	102.766	97.5327	199.701
5.1725	102.766	97.5394	199.695
5.175	102.765	97.5462	199.689
5.1775	102.764	97.5529	199.684
5.18	102.762	97.5596	199.678
5.1825	102.761	97.5664	199.672
5.185	102.76	97.5731	199.667
5.1875	102.759	97.5799	199.661
5.19	102.758	97.5866	199.655
5.1925	102.757	97.5933	199.65
5.195	102.756	97.6	199.644
5.1975	102.755	97.6068	199.639
5.2	102.753	97.6135	199.633
5.2025	102.752	97.6202	199.628
5.205	102.751	97.6269	199.622
5.2075	102.75	97.6336	199.617
5.21	102.748	97.6403	199.611
5.2125	102.747	97.647	199.606
5.215	102.746	97.6538	199.6
5.2175	102.744	97.6605	199.595
5.22	102.743	97.6672	199.59
5.2225	102.742	97.6738	199.584
5.225	102.74	97.6805	199.579
5.2275	102.739	97.6872	199.574
5.23	102.737	97.6939	199.569
5.2325	102.736	97.7006	199.563
5.235	102.734	97.7073	199.558
5.2375	102.733	97.714	199.553
5.24	102.731	97.7206	199.548
5.2425	102.73	97.7273	199.543
5.245	102.728	97.734	199.538
5.2475	102.727	97.7406	199.533
5.25	102.725	97.7473	199.528
5.2525	102.723	97.754	199.523
5.255	102.722	97.7606	199.518
5.2575	102.72	97.7673	199.513
5.26	102.718	97.7739	199.508
5.2625	102.717	97.7806	199.503
5.265	102.715	97.7872	199.498
5.2675	102.713	97.7938	199.493
5.27	102.712	97.8005	199.488
5.2725	102.71	97.8071	199.483
5.275	102.708	97.8137	199.478
5.2775	102.706	97.8203	199.474
5.28	102.704	97.8269	199.469
5.2825	102.702	97.8336	199.464
5.285	102.701	97.8402	199.459
5.2875	102.699	97.8468	199.455
5.29	102.697	97.8534	199.45
5.2925	102.695	97.86	199.445
5.295	102.693	97.8666	199.441
5.2975	102.691	97.8731	199.436
5.3	102.689	97.8797	199.431
5.3025	102.687	97.8863	199.427
5.305	102.685	97.8929	199.422
5.3075	102.683	97.8994	199.418
5.31	102.681	97.906	199.413
5.3125	102.679	97.9126	199.409
5.315	102.677	97.9191	199.404
5.3175	102.675	97.9257	199.4
5.32	102.673	97.9322	199.395
5.3225	102.67	97.9388	199.391
5.325	102.668	97.9453	199.386
5.3275	102.666	97.9518	199.382
5.33	102.664	97.9584	199.378
5.3325	102.662	97.9649	199.373
5.335	102.659	97.9714	199.369
5.3375	102.657	97.9779	199.365
5.34	102.655	97.9844	199.361
5.3425	102.653	97.9909	199.356
5.345	102.65	97.9974	199.352
5.3475	102.648	98.0039	199.348
5.35	102.646	98.0104	199.344
5.3525	102.643	98.0169	199.34
5.355	102.641	98.0233	199.336
5.3575	102.639	98.0298	199.332
5.36	102.636	98.0363	199.327
5.3625	102.634	98.0427	199.323
5.365	102.631	98.0492	199.319
5.3675	102.629	98.0556	199.315
5.37	102.627	98.0621	199.311
5.3725	102.624	98.0685	199.307
5.375	102.622	98.0749	199.303
5.3775	102.619	98.0814	199.299
5.38	102.617	98.0878	199.296
5.3825	102.614	98.0942	199.292
5.385	102.612	98.1006	199.288
5.3875	102.609	98.107	199.284
5.39	102.606	98.1134	199.28
5.3925	102.604	98.1198	199.276
5.395	102.601	98.1262	199.273
5.3975	102.599	98.1326	199.269
5.4	102.596	98.1389	199.265
5.4025	102.593	98.1453	199.261
5.405	102.591	98.1517	199.258
5.4075	102.588	98.158	199.254
5.41	102.585	98.1644	199.25
5.4125	102.583	98.1707	199.247
5.415	102.58	98.177	199.243
5.4175	102.577	98.1834	199.239
5.42	102.575	98.1897	199.236
5.4225	102.572	98.196	199.232
5.425	102.569	98.2023	199.229
5.4275	102.566	98.2086	199.225
5.43	102.563	98.2149	199.222
5.4325	102.561	98.2212	199.218
5.435	102.558	98.2275	199.215
5.4375	102.555	98.2338	199.211
5.44	102.552	98.24	199.208
5.4425	102.549	98.2463	199.204
5.445	102.546	98.2526	199.201
5.4475	102.543	98.2588	199.198
5.45	102.541	98.2651	199.194
5.4525	102.538	98.2713	199.191
5.455	102.535	98.2775	199.188
5.4575	102.532	98.2837	199.185
5.46	102.529	98.29	199.181
5.4625	102.526	98.2962	199.178
5.465	102.523	98.3024	199.175
5.4675	102.52	98.3086	199.172
5.47	102.517	98.3148	199.168
5.4725	102.514	98.3209	199.165
5.475	102.511	98.3271	199.162
5.4775	102.508	98.3333	199.159
5.48	102.505	98.3395	199.156
5.4825	102.502	98.3456	199.153
5.485	102.499	98.3518	199.15
5.4875	102.495	98.3579	199.147
5.49	102.492	98.364	199.144
5.4925	102.489	98.3702	199.141
5.495	102.486	98.3763	199.138
5.4975	102.483	98.3824	199.135
5.5	102.48	98.3885	199.132
5.5025	102.477	98.3946	199.129
5.505	102.473	98.4007	199.126
5.5075	102.47	98.4067	199.123
5.51	102.467	98.4128	199.12
5.5125	102.464	98.4189	199.117
5.515	102.461	98.4249	199.114
5.5175	102.457	98.431	199.112
5.52	102.454	98.437	199.109
5.5225	102.451	98.4431	199.106
5.525	102.448	98.4491	199.103
5.5275	102.444	98.4551	199.1
5.53	102.441	98.4611	199.098
5.5325	102.438	98.4671	199.095
5.535	102.435	98.4731	199.092
5.5375	102.431	98.4791	199.09
5.54	102.428	98.4851	199.087
5.5425	102.425	98.4911	199.084
5.545	102.421	98.4971	199.082
5.5475	102.418	98.503	199.079
5.55	102.414	98.509	199.077
5.5525	102.411	98.5149	199.074
5.555	102.408	98.5208	199.071
5.5575	102.404	98.5268	199.069
5.56	102.401	98.5327	199.066
5.5625	102.397	98.5386	199.064
5.565	102.394	98.5445	199.061
5.5675	102.391	98.5504	199.059
5.57	102.387	98.5563	199.057
5.5725	102.384	98.5622	199.054
5.575	102.38	98.568	199.052
5.5775	102.377	98.5739	199.049
5.58	102.373	98.5797	199.047
5.5825	102.37	98.5856	199.045
5.585	102.366	98.5914	199.042
5.5875	102.363	98.5972	199.04
5.59	102.359	98.6031	199.038
5.5925	102.356	98.6089	199.035
5.595	102.352	98.6147	199.033
5.5975	102.349	98.6205	199.031
5.6	102.345	98.6263	199.029
5.6025	102.342	98.632	199.026
5.605	102.338	98.6378	199.024
5.6075	102.334	98.6436	199.022
5.61	102.331	98.6493	199.02
5.6125	102.327	98.6551	199.018
5.615	102.324	98.6608	199.016
5.6175	102.32	98.6665	199.014
5.62	102.316	98.6722	199.011
5.6225	102.313	98.678	199.009
5.625	102.309	98.6837	199.007
5.6275	102.305	98.6893	199.005
5.63	102.302	98.695	199.003
5.6325	102.298	98.7007	199.001
5.635	102.294	98.7064	198.999
5.6375	102.291	98.712	198.997
5.64	102.287	98.7177	198.995
5.6425	102.283	98.7233	198.993
5.645	102.28	98.729	198.991
5.6475	102.276	98.7346	198.99
5.65	102.272	98.7402	198.988
5.6525	102.268	98.7458	198.986
5.655	102.265	98.7514	198.984
5.6575	102.261	98.757	198.982
5.66	102.257	98.7626	198.98
5.6625	102.253	98.7681	198.978
5.665	102.25	98.7737	198.977
5.6675	102.246	98.7792	198.975
5.67	102.242	98.7848	198.973
5.6725	102.238	98.7903	198.971
5.675	102.235	98.7958	198.97
5.6775	102.231	98.8013	198.968
5.68	102.227	98.8068	198.966
5.6825	102.223	98.8123	198.965
5.685	102.219	98.8178	198.963
5.6875	102.215	98.8233	198.961
5.69	102.212	98.8288	198.96
5.6925	102.208	98.8342	198.958
5.695	102.204	98.8397	198.956
5.6975	102.2	98.8451	198.955
5.7	102.196	98.8506	198.953
5.7025	102.192	98.856	198.952
5.705	102.189	98.8614	198.95
5.7075	102.185	98.8668	198.949
5.71	102.181	98.8722	198.947
5.7125	102.177	98.8776	198.946
5.715	102.173	98.883	198.944
5.7175	102.169	98.8883	198.943
5.72	102.165	98.8937	198.941
5.7225	102.161	98.899	198.94
5.725	102.157	98.9044	198.938
5.7275	102.153	98.9097	198.937
5.73	102.149	98.915	198.936
5.7325	102.146	98.9203	198.934
5.735	102.142	98.9256	198.933
5.7375	102.138	98.9309	198.931
5.74	102.134	98.9362	198.93
5.7425	102.13	98.9415	198.929
5.745	102.126	98.9467	198.927
5.7475	102.122	98.952	198.926
5.75	102.118	98.9572	198.925
5.7525	102.114	98.9625	198.924
5.755	102.11	98.9677	198.922
5.7575	102.106	98.9729	198.921
5.76	102.102	98.9781	198.92
5.7625	102.098	98.9833	198.919
5.765	102.094	98.9885	198.918
5.7675	102.09	98.9937	198.916
5.77	102.086	98.9988	198.915
5.7725	102.082	99.004	198.914
5.775	102.078	99.0092	198.913
5.7775	102.074	99.0143	198.912
5.78	102.07	99.0194	198.911
5.7825	102.066	99.0245	198.91
5.785	102.062	99.0296	198.909
5.7875	102.058	99.0347	198.908
5.79	102.054	99.0398	198.907
5.7925	102.05	99.0449	198.906
5.795	102.045	99.05	198.905
5.7975	102.041	99.055	198.904
5.8	102.037	99.0601	198.903
5.8025	102.033	99.0651	198.902
5.805	102.029	99.0702	198.901
5.8075	102.025	99.0752	198.9
5.81	102.021	99.0802	198.899
5.8125	102.017	99.0852	198.898
5.815	102.013	99.0902	198.897
5.8175	102.009	99.0952	198.896
5.82	102.005	99.1001	198.895
5.8225	102.001	99.1051	198.894
5.825	101.996	99.1101	198.893
5.8275	101.992	99.115	198.893
5.83	101.988	99.1199	198.892
5.8325	101.984	99.1249	198.891
5.835	101.98	99.1298	198.89
5.8375	101.976	99.1347	198.889
5.84	101.972	99.1396	198.889
5.8425	101.968	99.1444	198.888
5.845	101.964	99.1493	198.887
5.8475	101.959	99.1542	198.886
5.85	101.955	99.159	198.886
5.8525	101.951	99.1639	198.885
5.855	101.947	99.1687	198.884
5.8575	101.943	99.1735	198.884
5.86	101.939	99.1783	198.883
5.8625	101.935	99.1831	198.882
5.865	101.93	99.1879	198.882
5.8675	101.926	99.1927	198.881
5.87	101.922	99.1975	198.88
5.8725	101.918	99.2022	198.88
5.875	101.914	99.207	198.879
5.8775	101.91	99.2117	198.879
5.88	101.905	99.2165	198.878
5.8825	101.901	99.2212	198.878
5.885	101.897	99.2259	198.877
5.8875	101.893	99.2306	198.876
5.89	101.889	99.2353	198.876
5.8925	101.885	99.24	198.875
5.895	101.88	99.2446	198.875
5.8975	101.876	99.2493	198.875
5.9	101.872	99.254	198.874
5.9025	101.868	99.2586	198.874
5.905	101.864	99.2632	198.873
5.9075	101.859	99.2678	198.873
5.91	101.855	99.2725	198.872
5.9125	101.851	99.2771	198.872
5.915	101.847	99.2816	198.872
5.9175	101.843	99.2862	198.871
5.92	101.838	99.2908	198.871
5.9225	101.834	99.2954	198.87
5.925	101.83	99.2999	198.87
5.9275	101.826	99.3044	198.87
5.93	101.822	99.309	198.869
5.9325	101.817	99.3135	198.869
5.935	101.813	99.318	198.869
5.9375	101.809	99.3225	198.869
5.94	101.805	99.327	198.868
5.9425	101.801	99.3314	198.868
5.945	101.796	99.3359	198.868
5.9475	101.792	99.3404	198.868
5.95	101.788	99.3448	198.867
5.9525	101.784	99.3493	198.867
5.955	101.779	99.3537	198.867
5.9575	101.775	99.3581	198.867
5.96	101.771	99.3625	198.866
5.9625	101.767	99.3669	198.866
5.965	101.763	99.3713	198.866
5.9675	101.758	99.3756	198.866
5.97	101.754	99.38	198.866
5.9725	101.75	99.3844	198.866
5.975	101.746	99.3887	198.866
5.9775	101.741	99.393	198.866
5.98	101.737	99.3974	198.865
5.9825	101.733	99.4017	198.865
5.985	101.729	99.406	198.865
5.9875	101.725	99.4103	198.865
5.99	101.72	99.4145	198.865
5.9925	101.716	99.4188	198.865
5.995	101.712	99.4231	198.865
5.9975	101.708	99.4273	198.865
6	101.703	99.4316	198.865
6.0025	101.699	99.4358	198.865
6.005	101.695	99.44	198.865
6.0075	101.691	99.4442	198.865
6.01	101.686	99.4484	198.865
6.0125	101.682	99.4526	198.865
6.015	101.678	99.4568	198.865
6.0175	101.674	99.461	198.865
6.02	101.67	99.4651	198.865
6.0225	101.665	99.4693	198.865
6.025	101.661	99.4734	198.866
6.0275	101.657	99.4775	198.866
6.03	101.653	99.4816	198.866
6.0325	101.648	99.4857	198.866
6.035	101.644	99.4898	198.866
6.0375	101.64	99.4939	198.866
6.04	101.636	99.498	198.866
6.0425	101.631	99.5021	198.867
6.045	101.627	99.5061	198.867
6.0475	101.623	99.5101	198.867
6.05	101.619	99.5142	198.867
6.0525	101.615	99.5182	198.867
6.055	101.61	99.5222	198.868
6.0575	101.606	99.5262	198.868
6.06	101.602	99.5302	198.868
6.0625	101.598	99.5342	198.868
6.065	101.593	99.5382	198.868
6.0675	101.589	99.5421	198.869
6.07	101.585	99.5461	198.869
6.0725	101.581	99.55	198.869
6.075	101.576	99.5539	198.87
6.0775	101.572	99.5579	198.87
6.08	101.568	99.5618	198.87
6.0825	101.564	99.5657	198.871
6.085	101.56	99.5695	198.871
6.0875	101.555	99.5734	198.871
6.09	101.551	99.5773	198.872
6.0925	101.547	99.5811	198.872
6.095	101.543	99.585	198.872
6.0975	101.539	99.5888	198.873
6.1	101.534	99.5927	198.873
6.1025	101.53	99.5965	198.873
6.105	101.526	99.6003	198.874
6.1075	101.522	99.6041	198.874
6.11	101.517	99.6079	198.875
6.1125	101.513	99.6116	198.875
6.115	101.509	99.6154	198.876
6.1175	101.505	99.6191	198.876
6.12	101.501	99.6229	198.876
6.1225	101.496	99.6266	198.877
6.125	101.492	99.6303	198.877
6.1275	101.488	99.634	198.878
6.13	101.484	99.6378	198.878
6.1325	101.48	99.6414	198.879
6.135	101.476	99.6451	198.879
6.1375	101.471	99.6488	198.88
6.14	101.467	99.6525	198.88
6.1425	101.463	99.6561	198.881
6.145	101.459	99.6597	198.881
6.1475	101.455	99.6634	198.882
6.15	101.45	99.667	198.883
6.1525	101.446	99.6706	198.883
6.155	101.442	99.6742	198.884
6.1575	101.438	99.6778	198.884
6.16	101.434	99.6814	198.885
6.1625	101.43	99.6849	198.886
6.165	101.425	99.6885	198.886
6.1675	101.421	99.692	198.887
6.17	101.417	99.6956	198.887
6.1725	101.413	99.6991	198.888
6.175	101.409	99.7026	198.889
6.1775	101.405	99.7061	198.889
6.18	101.4	99.7096	198.89
6.1825	101.396	99.7131	198.891
6.185	101.392	99.7166	198.891
6.1875	101.388	99.72	198.892
6.19	101.384	99.7235	198.893
6.1925	101.38	99.7269	198.893
6.195	101.376	99.7304	198.894
6.1975	101.371	99.7338	198.895
6.2	101.367	99.7372	198.896
6.2025	101.363	99.7406	198.896
6.205	101.359	99.744	198.897
6.2075	101.355	99.7474	198.898
6.21	101.351	99.7508	198.898
6.2125	101.347	99.7541	198.899
6.215	101.343	99.7575	198.9
6.2175	101.338	99.7608	198.901
6.22	101.334	99.7642	198.902
6.2225	101.33	99.7675	198.902
6.225	101.326	99.7708	198.903
6.2275	101.322	99.7741	198.904
6.23	101.318	99.7774	198.905
6.2325	101.314	99.7807	198.906
6.235	101.31	99.784	198.906
6.2375	101.306	99.7872	198.907
6.24	101.302	99.7905	198.908
6.2425	101.297	99.7937	198.909
6.245	101.293	99.7969	198.91
6.2475	101.289	99.8002	198.911
6.25	101.285	99.8034	198.911
6.2525	101.281	99.8066	198.912
6.255	101.277	99.8098	198.913
6.2575	101.273	99.8129	198.914
6.26	101.269	99.8161	198.915
6.2625	101.265	99.8193	198.916
6.265	101.261	99.8224	198.917
6.2675	101.257	99.8256	198.918
6.27	101.253	99.8287	198.919
6.2725	101.249	99.8318	198.92
6.275	101.245	99.8349	198.92
6.2775	101.241	99.838	198.921
6.28	101.236	99.8411	198.922
6.2825	101.232	99.8442	198.923
6.285	101.228	99.8473	198.924
6.2875	101.224	99.8503	198.925
6.29	101.22	99.8534	198.926
6.2925	101.216	99.8564	198.927
6.295	101.212	99.8595	198.928
6.2975	101.208	99.8625	198.929
6.3	101.204	99.8655	198.93
6.3025	101.2	99.8685	198.931
6.305	101.196	99.8715	198.932
6.3075	101.192	99.8745	198.933
6.31	101.188	99.8775	198.934
6.3125	101.184	99.8804	198.935
6.315	101.18	99.8834	198.936
6.3175	101.176	99.8863	198.937
6.32	101.172	99.8892	198.938
6.3225	101.168	99.8922	198.939
6.325	101.164	99.8951	198.94
6.3275	101.16	99.898	198.942
6.33	101.156	99.9009	198.943
6.3325	101.153	99.9038	198.944
6.335	101.149	99.9066	198.945
6.3375	101.145	99.9095	198.946
6.34	101.141	99.9123	198.947
6.3425	101.137	99.9152	198.948
6.345	101.133	99.918	198.949
6.3475	101.129	99.9209	198.95
6.35	101.125	99.9237	198.951
6.3525	101.121	99.9265	198.953
6.355	101.117	99.9293	198.954
6.3575	101.113	99.9321	198.955
6.36	101.109	99.9348	198.956
6.3625	101.105	99.9376	198.957
6.365	101.101	99.9404	198.958
6.3675	101.098	99.9431	198.959
6.37	101.094	99.9458	198.961
6.3725	101.09	99.9486	198.962
6.375	101.086	99.9513	198.963
6.3775	101.082	99.954	198.964
6.38	101.078	99.9567	198.965
6.3825	101.074	99.9594	198.966
6.385	101.07	99.9621	198.968
6.3875	101.066	99.9647	198.969
6.39	101.063	99.9674	198.97
6.3925	101.059	99.97	198.971
6.395	101.055	99.9727	198.972
6.3975	101.051	99.9753	198.974
6.4	101.047	99.9779	198.975
6.4025	101.043	99.9805	198.976
6.405	101.039	99.9832	198.977
6.4075	101.036	99.9857	198.979
6.41	101.032	99.9883	198.98
6.4125	101.028	99.9909	198.981
6.415	101.024	99.9935	198.982
6.4175	101.02	99.996	198.984
6.42	101.017	99.9986	198.985
6.4225	101.013	100.001	198.986
6.425	101.009	100.004	198.987
6.4275	101.005	100.006	198.989
6.43	101.001	100.009	198.99
6.4325	100.998	100.011	198.991
6.435	100.994	100.014	198.993
6.4375	100.99	100.016	198.994
6.44	100.986	100.019	198.995
6.4425	100.983	100.021	198.996
6.445	100.979	100.024	198.998
6.4475	100.975	100.026	198.999
6.45	100.971	100.028	199
6.4525	100.967	100.031	199.002
6.455	100.964	100.033	199.003
6.4575	100.96	100.036	199.004
6.46	100.956	100.038	199.006
6.4625	100.953	100.04	199.007
6.465	100.949	100.043	199.008
6.4675	100.945	100.045	199.01
6.47	100.941	100.048	199.011
6.4725	100.938	100.05	199.012
6.475	100.934	100.052	199.014
6.4775	100.93	100.055	199.015
6.48	100.927	100.057	199.017
6.4825	100.923	100.059	199.018
6.485	100.919	100.061	199.019
6.4875	100.916	100.064	199.021
6.49	100.912	100.066	199.022
6.4925	100.908	100.068	199.023
6.495	100.905	100.071	199.025
6.4975	100.901	100.073	199.026
6.5	100.897	100.075	199.028
6.5025	100.894	100.077	199.029
6.505	100.89	100.08	199.03
6.5075	100.886	100.082	199.032
6.51	100.883	100.084	199.033
6.5125	100.879	100.086	199.035
6.515	100.875	100.088	199.036
6.5175	100.872	100.091	199.038
6.52	100.868	100.093	199.039
6.5225	100.865	100.095	199.04
6.525	100.861	100.097	199.042
6.5275	100.857	100.099	199.043
6.53	100.854	100.101	199.045
6.5325	100.85	100.104	199.046
6.535	100.847	100.106	199.048
6.5375	100.843	100.108	199.049
6.54	100.84	100.11	199.051
6.5425	100.836	100.112	199.052
6.545	100.832	100.114	199.053
6.5475	100.829	100.116	199.055
6.55	100.825	100.118	199.056
6.5525	100.822	100.12	199.058
6.555	100.818	100.122	199.059
6.5575	100.815	100.124	199.061
6.56	100.811	100.126	199.062
6.5625	100.808	100.128	199.064
6.565	100.804	100.13	199.065
6.5675	100.801	100.132	199.067
6.57	100.797	100.134	199.068
6.5725	100.794	100.136	199.07
6.575	100.79	100.138	199.071
6.5775	100.787	100.14	199.073
6.58	100.783	100.142	199.074
6.5825	100.78	100.144	199.076
6.585	100.776	100.146	199.077
6.5875	100.773	100.148	199.079
6.59	100.769	100.15	199.08
6.5925	100.766	100.152	199.082
6.595	100.763	100.154	199.083
6.5975	100.759	100.156	199.085
6.6	100.756	100.158	199.087
6.6025	100.752	100.16	199.088
6.605	100.749	100.162	199.09
6.6075	100.745	100.163	199.091
6.61	100.742	100.165	199.093
6.6125	100.739	100.167	199.094
6.615	100.735	100.169	199.096
6.6175	100.732	100.171	199.097
6.62	100.728	100.173	199.099
6.6225	100.725	100.174	199.1
6.625	100.722	100.176	199.102
6.6275	100.718	100.178	199.104
6.63	100.715	100.18	199.105
6.6325	100.712	100.182	199.107
6.635	100.708	100.183	199.108
6.6375	100.705	100.185	199.11
6.64	100.702	100.187	199.111
6.6425	100.698	100.189	199.113
6.645	100.695	100.19	199.115
6.6475	100.692	100.192	199.116
6.65	100.688	100.194	199.118
6.6525	100.685	100.196	199.119
6.655	100.682	100.197	199.121
6.6575	100.678	100.199	199.123
6.66	100.675	100.201	199.124
6.6625	100.672	100.202	199.126
6.665	100.668	100.204	199.127
6.6675	100.665	100.206	199.129
6.67	100.662	100.207	199.131
6.6725	100.659	100.209	199.132
6.675	100.655	100.211	199.134
6.6775	100.652	100.212	199.135
6.68	100.649	100.214	199.137
6.6825	100.646	100.216	199.139
6.685	100.642	100.217	199.14
6.6875	100.639	100.219	199.142
6.69	100.636	100.22	199.144
6.6925	100.633	100.222	199.145
6.695	100.63	100.224	199.147
6.6975	100.626	100.225	199.148
6.7	100.623	100.227	199.15
6.7025	100.62	100.228	199.152
6.705	100.617	100.23	199.153
6.7075	100.614	100.231	199.155
6.71	100.611	100.233	199.157
6.7125	100.607	100.234	199.158
6.715	100.604	100.236	199.16
6.7175	100.601	100.238	199.161
6.72	100.598	100.239	199.163
6.7225	100.595	100.241	199.165
6.725	100.592	100.242	199.166
6.7275	100.588	100.243	199.168
6.73	100.585	100.245	199.17
6.7325	100.582	100.246	199.171
6.735	100.579	100.248	199.173
6.7375	100.576	100.249	199.175
6.74	100.573	100.251	199.176
6.7425	100.57	100.252	199.178
6.745	100.567	100.254	199.18
6.7475	100.564	100.255	199.181
6.75	100.561	100.256	199.183
6.7525	100.558	100.258	199.185
6.755	100.555	100.259	199.186
6.7575	100.551	100.261	199.188
6.76	100.548	100.262	199.19
6.7625	100.545	100.263	199.191
6.765	100.542	100.265	199.193
6.7675	100.539	100.266	199.195
6.77	100.536	100.267	199.196
6.7725	100.533	100.269	199.198
6.775	100.53	100.27	199.2
6.7775	100.527	100.271	199.201
6.78	100.524	100.273	199.203
6.7825	100.521	100.274	199.205
6.785	100.518	100.275	199.206
6.7875	100.515	100.277	199.208
6.79	100.512	100.278	199.21
6.7925	100.509	100.279	199.211
6.795	100.506	100.281	199.213
6.7975	100.503	100.282	199.215
6.8	100.501	100.283	199.216
6.8025	100.498	100.284	199.218
6.805	100.495	100.286	199.22
6.8075	100.492	100.287	199.222
6.81	100.489	100.288	199.223
6.8125	100.486	100.289	199.225
6.815	100.483	100.29	199.227
6.8175	100.48	100.292	199.228
6.82	100.477	100.293	199.23
6.8225	100.474	100.294	199.232
6.825	100.471	100.295	199.233
6.8275	100.469	100.296	199.235
6.83	100.466	100.298	199.237
6.8325	100.463	100.299	199.238
6.835	100.46	100.3	199.24
6.8375	100.457	100.301	199.242
6.84	100.454	100.302	199.244
6.8425	100.451	100.303	199.245
6.845	100.449	100.304	199.247
6.8475	100.446	100.306	199.249
6.85	100.443	100.307	199.25
6.8525	100.44	100.308	199.252
6.855	100.437	100.309	199.254
6.8575	100.435	100.31	199.255
6.86	100.432	100.311	199.257
6.8625	100.429	100.312	199.259
6.865	100.426	100.313	199.261
6.8675	100.423	100.314	199.262
6.87	100.421	100.315	199.264
6.8725	100.418	100.316	199.266
6.875	100.415	100.317	199.267
6.8775	100.412	100.318	199.269
6.88	100.41	100.32	199.271
6.8825	100.407	100.321	199.273
6.885	100.404	100.322	199.274
6.8875	100.401	100.323	199.276
6.89	100.399	100.324	199.278
6.8925	100.396	100.325	199.279
6.895	100.393	100.326	199.281
6.8975	100.391	100.327	199.283
6.9	100.388	100.328	199.285
6.9025	100.385	100.328	199.286
6.905	100.383	100.329	199.288
6.9075	100.38	100.33	199.29
6.91	100.377	100.331	199.291
6.9125	100.375	100.332	199.293
6.915	100.372	100.333	199.295
6.9175	100.369	100.334	199.297
6.92	100.367	100.335	199.298
6.9225	100.364	100.336	199.3
6.925	100.361	100.337	199.302
6.9275	100.359	100.338	199.303
6.93	100.356	100.339	199.305
6.9325	100.354	100.34	199.307
6.935	100.351	100.34	199.309
6.9375	100.348	100.341	199.31
6.94	100.346	100.342	199.312
6.9425	100.343	100.343	199.314
6.945	100.341	100.344	199.315
6.9475	100.338	100.345	199.317
6.95	100.336	100.346	199.319
6.9525	100.333	100.346	199.321
6.955	100.33	100.347	199.322
6.9575	100.328	100.348	199.324
6.96	100.325	100.349	199.326
6.9625	100.323	100.35	199.327
6.965	100.32	100.351	199.329
6.9675	100.318	100.351	199.331
6.97	100.315	100.352	199.333
6.9725	100.313	100.353	199.334
6.975	100.31	100.354	199.336
6.9775	100.308	100.355	199.338
6.98	100.305	100.355	199.339
6.9825	100.303	100.356	199.341
6.985	100.3	100.357	199.343
6.9875	100.298	100.358	199.345
6.99	100.295	100.358	199.346
6.9925	100.293	100.359	199.348
6.995	100.291	100.36	199.35
6.9975	100.288	100.36	199.351
7	100.286	100.361	199.353
7.0025	100.283	100.362	199.355
7.005	100.281	100.363	199.357
7.0075	100.278	100.363	199.358
7.01	100.276	100.364	199.36
7.0125	100.274	100.365	199.362
7.015	100.271	100.365	199.363
7.0175	100.269	100.366	199.365
7.02	100.266	100.367	199.367
7.0225	100.264	100.367	199.369
7.025	100.262	100.368	199.37
7.0275	100.259	100.369	199.372
7.03	100.257	100.369	199.374
7.0325	100.255	100.37	199.375
7.035	100.252	100.371	199.377
7.0375	100.25	100.371	199.379
7.04	100.248	100.372	199.38
7.0425	100.245	100.373	199.382
7.045	100.243	100.373	199.384
7.0475	100.241	100.374	199.386
7.05	100.238	100.374	199.387
7.0525	100.236	100.375	199.389
7.055	100.234	100.376	199.391
7.0575	100.232	100.376	199.392
7.06	100.229	100.377	199.394
7.0625	100.227	100.377	199.396
7.065	100.225	100.378	199.397
7.0675	100.222	100.378	199.399
7.07	100.22	100.379	199.401
7.0725	100.218	100.38	199.403
7.075	100.216	100.38	199.404
7.0775	100.213	100.381	199.406
7.08	100.211	100.381	199.408
7.0825	100.209	100.382	199.409
7.085	100.207	100.382	199.411
7.0875	100.205	100.383	199.413
7.09	100.202	100.383	199.414
7.0925	100.2	100.384	199.416
7.095	100.198	100.384	199.418
7.0975	100.196	100.385	199.419
7.1	100.194	100.385	199.421
7.1025	100.191	100.386	199.423
7.105	100.189	100.386	199.425
7.1075	100.187	100.387	199.426
7.11	100.185	100.387	199.428
7.1125	100.183	100.388	199.43
7.115	100.181	100.388	199.431
7.1175	100.179	100.388	199.433
7.12	100.176	100.389	199.435
7.1225	100.174	100.389	199.436
7.125	100.172	100.39	199.438
7.1275	100.17	100.39	199.44
7.13	100.168	100.391	199.441
7.1325	100.166	100.391	199.443
7.135	100.164	100.391	199.445
7.1375	100.162	100.392	199.446
7.14	100.16	100.392	199.448
7.1425	100.158	100.393	199.45
7.145	100.156	100.393	199.451
7.1475	100.154	100.393	199.453
7.15	100.151	100.394	199.455
7.1525	100.149	100.394	199.456
7.155	100.147	100.395	199.458
7.1575	100.145	100.395	199.46
7.16	100.143	100.395	199.461
7.1625	100.141	100.396	199.463
7.165	100.139	100.396	199.465
7.1675	100.137	100.396	199.466
7.17	100.135	100.397	199.468
7.1725	100.133	100.397	199.47
7.175	100.131	100.397	199.471
7.1775	100.129	100.398	199.473
7.18	100.127	100.398	199.475
7.1825	100.125	100.398	199.476
7.185	100.123	100.399	199.478
7.1875	100.121	100.399	199.48
7.19	100.12	100.399	199.481
7.1925	100.118	100.4	199.483
7.195	100.116	100.4	199.484
7.1975	100.114	100.4	199.486
7.2	100.112	100.4	199.488
7.2025	100.11	100.401	199.489
7.205	100.108	100.401	199.491
7.2075	100.106	100.401	199.493
7.21	100.104	100.402	199.494
7.2125	100.102	100.402	199.496
7.215	100.1	100.402	199.498
7.2175	100.098	100.402	199.499
7.22	100.097	100.403	199.501
7.2225	100.095	100.403	199.502
7.225	100.093	100.403	199.504
7.2275	100.091	100.403	199.506
7.23	100.089	100.403	199.507
7.2325	100.087	100.404	199.509
7.235	100.085	100.404	199.511
7.2375	100.084	100.404	199.512
7.24	100.082	100.404	199.514
7.2425	100.08	100.405	199.515
7.245	100.078	100.405	199.517
7.2475	100.076	100.405	199.519
7.25	100.075	100.405	199.52
7.2525	100.073	100.405	199.522
7.255	100.071	100.405	199.524
7.2575	100.069	100.406	199.525
7.26	100.067	100.406	199.527
7.2625	100.066	100.406	199.528
7.265	100.064	100.406	199.53
7.2675	100.062	100.406	199.532
7.27	100.06	100.406	199.533
7.2725	100.059	100.407	199.535
7.275	100.057	100.407	199.536
7.2775	100.055	100.407	199.538
7.28	100.053	100.407	199.54
7.2825	100.052	100.407	199.541
7.285	100.05	100.407	199.543
7.2875	100.048	100.407	199.544
7.29	100.047	100.408	199.546
7.2925	100.045	100.408	199.547
7.295	100.043	100.408	199.549
7.2975	100.041	100.408	199.551
7.3	100.04	100.408	199.552
7.3025	100.038	100.408	199.554
7.305	100.036	100.408	199.555
7.3075	100.035	100.408	199.557
7.31	100.033	100.408	199.559
7.3125	100.031	100.408	199.56
7.315	100.03	100.408	199.562
7.3175	100.028	100.409	199.563
7.32	100.027	100.409	199.565
7.3225	100.025	100.409	199.566
7.325	100.023	100.409	199.568
7.3275	100.022	100.409	199.57
7.33	100.02	100.409	199.571
7.3325	100.018	100.409	199.573
7.335	100.017	100.409	199.574
7.3375	100.015	100.409	199.576
7.34	100.014	100.409	199.577
7.3425	100.012	100.409	199.579
7.345	100.011	100.409	199.58
7.3475	100.009	100.409	199.582
7.35	100.007	100.409	199.583
7.3525	100.006	100.409	199.585
7.355	100.004	100.409	199.587
7.3575	100.003	100.409	199.588
7.36	100.001	100.409	199.59
7.3625	99.9996	100.409	199.591
7.365	99.9981	100.409	199.593
7.3675	99.9966	100.409	199.594
7.37	99.9951	100.409	199.596
7.3725	99.9936	100.409	199.597
7.375	99.9921	100.409	199.599
7.3775	99.9906	100.409	199.6
7.38	99.9891	100.409	199.602
7.3825	99.9876	100.409	199.603
7.385	99.9861	100.409	199.605
7.3875	99.9846	100.409	199.606
7.39	99.9831	100.409	199.608
7.3925	99.9817	100.409	199.609
7.395	99.9802	100.409	199.611
7.3975	99.9787	100.409	199.612
7.4	99.9773	100.409	199.614
7.4025	99.9758	100.409	199.615
7.405	99.9744	100.409	199.617
7.4075	99.973	100.409	199.618
7.41	99.9715	100.408	199.62
7.4125	99.9701	100.408	199.621
7.415	99.9687	100.408	199.623
7.4175	99.9673	100.408	199.624
7.42	99.9659	100.408	199.626
7.4225	99.9645	100.408	199.627
7.425	99.9631	100.408	199.629
7.4275	99.9617	100.408	199.63
7.43	99.9603	100.408	199.632
7.4325	99.959	100.408	199.633
7.435	99.9576	100.408	199.635
7.4375	99.9562	100.407	199.636
7.44	99.9549	100.407	199.638
7.4425	99.9535	100.407	199.639
7.445	99.9521	100.407	199.641
7.4475	99.9508	100.407	199.642
7.45	99.9495	100.407	199.644
7.4525	99.9481	100.407	199.645
7.455	99.9468	100.407	199.647
7.4575	99.9455	100.406	199.648
7.46	99.9442	100.406	199.649
7.4625	99.9429	100.406	199.651
7.465	99.9416	100.406	199.652
7.4675	99.9403	100.406	199.654
7.47	99.939	100.406	199.655
7.4725	99.9377	100.406	199.657
7.475	99.9364	100.405	199.658
7.4775	99.9351	100.405	199.66
7.48	99.9338	100.405	199.661
7.4825	99.9326	100.405	199.662
7.485	99.9313	100.405	199.664
7.4875	99.93	100.405	199.665
7.49	99.9288	100.404	199.667
7.4925	99.9275	100.404	199.668
7.495	99.9263	100.404	199.67
7.4975	99.9251	100.404	199.671
7.5	99.9238	100.404	199.672
7.5025	99.9226	100.404	199.674
7.505	99.9214	100.403	199.675
7.5075	99.9202	100.403	199.677
7.51	99.919	100.403	199.678
7.5125	99.9178	100.403	199.68
7.515	99.9166	100.403	199.681
7.5175	99.9154	100.402	199.682
7.52	99.9142	100.402	199.684
7.5225	99.913	100.402	199.685
7.525	99.9118	100.402	199.687
7.5275	99.9107	100.401	199.688
7.53	99.9095	100.401	199.689
7.5325	99.9083	100.401	199.691
7.535	99.9072	100.401	199.692
7.5375	99.906	100.4	199.693
7.54	99.9049	100.4	199.695
7.5425	99.9037	100.4	199.696
7.545	99.9026	100.4	199.698
7.5475	99.9015	100.4	199.699
7.55	99.9003	100.399	199.7
7.5525	99.8992	100.399	199.702
7.555	99.8981	100.399	199.703
7.5575	99.897	100.399	199.704
7.56	99.8959	100.398	199.706
7.5625	99.8948	100.398	199.707
7.565	99.8937	100.398	199.709
7.5675	99.8926	100.397	199.71
7.57	99.8915	100.397	199.711
7.5725	99.8904	100.397	199.713
7.575	99.8894	100.397	199.714
7.5775	99.8883	100.396	199.715
7.58	99.8872	100.396	199.717
7.5825	99.8862	100.396	199.718
7.585	99.8851	100.396	199.719
7.5875	99.8841	100.395	199.721
7.59	99.883	100.395	199.722
7.5925	99.882	100.395	199.723
7.595	99.881	100.394	199.725
7.5975	99.8799	100.394	199.726
7.6	99.8789	100.394	199.727
7.6025	99.8779	100.393	199.729
7.605	99.8769	100.393	199.73
7.6075	99.8759	100.393	199.731
7.61	99.8749	100.392	199.733
7.6125	99.8739	100.392	199.734
7.615	99.8729	100.392	199.735
7.6175	99.8719	100.392	199.737
7.62	99.8709	100.391	199.738
7.6225	99.8699	100.391	199.739
7.625	99.8689	100.391	199.74
7.6275	99.868	100.39	199.742
7.63	99.867	100.39	199.743
7.6325	99.8661	100.39	199.744
7.635	99.8651	100.389	199.746
7.6375	99.8641	100.389	199.747
7.64	99.8632	100.389	199.748
7.6425	99.8623	100.388	199.75
7.645	99.8613	100.388	199.751
7.6475	99.8604	100.388	199.752
7.65	99.8595	100.387	199.753
7.6525	99.8585	100.387	199.755
7.655	99.8576	100.386	199.756
7.6575	99.8567	100.386	199.757
7.66	99.8558	100.386	199.758
7.6625	99.8549	100.385	199.76
7.665	99.854	100.385	199.761
7.6675	99.8531	100.385	199.762
7.67	99.8522	100.384	199.764
7.6725	99.8514	100.384	199.765
7.675	99.8505	100.384	199.766
7.6775	99.8496	100.383	199.767
7.68	99.8487	100.383	199.769
7.6825	99.8479	100.382	199.77
7.685	99.847	100.382	199.771
7.6875	99.8462	100.382	199.772
7.69	99.8453	100.381	199.773
7.6925	99.8445	100.381	199.775
7.695	99.8436	100.38	199.776
7.6975	99.8428	100.38	199.777
7.7	99.8419	100.38	199.778
7.7025	99.8411	100.379	199.78
7.705	99.8403	100.379	199.781
7.7075	99.8395	100.378	199.782
7.71	99.8387	100.378	199.783
7.7125	99.8379	100.378	199.784
7.715	99.8371	100.377	199.786
7.7175	99.8363	100.377	199.787
7.72	99.8355	100.376	199.788
7.7225	99.8347	100.376	199.789
7.725	99.8339	100.376	199.791
7.7275	99.8331	100.375	199.792
7.73	99.8323	100.375	199.793
7.7325	99.8315	100.374	199.794
7.735	99.8308	100.374	199.795
7.7375	99.83	100.373	199.797
7.74	99.8293	100.373	199.798
7.7425	99.8285	100.373	199.799
7.745	99.8278	100.372	199.8
7.7475	99.827	100.372	199.801
7.75	99.8263	100.371	199.802
7.7525	99.8255	100.371	199.804
7.755	99.8248	100.37	199.805
7.7575	99.8241	100.37	199.806
7.76	99.8233	100.37	199.807
7.7625	99.8226	100.369	199.808
7.765	99.8219	100.369	199.809
7.7675	99.8212	100.368	199.811
7.77	99.8205	100.368	199.812
7.7725	99.8198	100.367	199.813
7.775	99.8191	100.367	199.814
7.7775	99.8184	100.366	199.815
7.78	99.8177	100.366	199.816
7.7825	99.817	100.366	199.817
7.785	99.8163	100.365	199.819
7.7875	99.8157	100.365	199.82
7.79	99.815	100.364	199.821
7.7925	99.8143	100.364	199.822
7.795	99.8137	100.363	199.823
7.7975	99.813	100.363	199.824
7.8	99.8123	100.362	199.825
7.8025	99.8117	100.362	199.827
7.805	99.811	100.361	199.828
7.8075	99.8104	100.361	199.829
7.81	99.8098	100.36	199.83
7.8125	99.8091	100.36	199.831
7.815	99.8085	100.359	199.832
7.8175	99.8079	100.359	199.833
7.82	99.8073	100.358	199.834
7.8225	99.8066	100.358	199.835
7.825	99.806	100.357	199.837
7.8275	99.8054	100.357	199.838
7.83	99.8048	100.356	199.839
7.8325	99.8042	100.356	199.84
7.835	99.8036	100.356	199.841
7.8375	99.803	100.355	199.842
7.84	99.8024	100.355	199.843
7.8425	99.8018	100.354	199.844
7.845	99.8013	100.354	199.845
7.8475	99.8007	100.353	199.846
7.85	99.8001	100.353	199.847
7.8525	99.7995	100.352	199.848
7.855	99.799	100.352	199.85
7.8575	99.7984	100.351	199.851
7.86	99.7979	100.351	199.852
7.8625	99.7973	100.35	199.853
7.865	99.7968	100.349	199.854
7.8675	99.7962	100.349	199.855
7.87	99.7957	100.348	199.856
7.8725	99.7951	100.348	199.857
7.875	99.7946	100.347	199.858
7.8775	99.7941	100.347	199.859
7.88	99.7936	100.346	199.86
7.8825	99.793	100.346	199.861
7.885	99.7925	100.345	199.862
7.8875	99.792	100.345	199.863
7.89	99.7915	100.344	199.864
7.8925	99.791	100.344	199.865
7.895	99.7905	100.343	199.866
7.8975	99.79	100.343	199.867
7.9	99.7895	100.342	199.868
7.9025	99.789	100.342	199.869
7.905	99.7885	100.341	199.87
7.9075	99.788	100.341	199.871
7.91	99.7876	100.34	199.872
7.9125	99.7871	100.34	199.873
7.915	99.7866	100.339	199.874
7.9175	99.7861	100.338	199.875
7.92	99.7857	100.338	199.876
7.9225	99.7852	100.337	199.877
7.925	99.7848	100.337	199.878
7.9275	99.7843	100.336	199.879
7.93	99.7839	100.336	199.88
7.9325	99.7834	100.335	199.881
7.935	99.783	100.335	199.882
7.9375	99.7825	100.334	199.883
7.94	99.7821	100.334	199.884
7.9425	99.7817	100.333	199.885
7.945	99.7812	100.333	199.886
7.9475	99.7808	100.332	199.887
7.95	99.7804	100.331	199.888
7.9525	99.78	100.331	199.889
7.955	99.7796	100.33	199.89
7.9575	99.7792	100.33	199.891
7.96	99.7788	100.329	199.892
7.9625	99.7784	100.329	199.893
7.965	99.778	100.328	199.894
7.9675	99.7776	100.328	199.895
7.97	99.7772	100.327	199.896
7.9725	99.7768	100.326	199.897
7.975	99.7764	100.326	199.898
7.9775	99.776	100.325	199.899
7.98	99.7757	100.325	199.9
7.9825	99.7753	100.324	199.901
7.985	99.7749	100.324	199.901
7.9875	99.7745	100.323	199.902
7.99	99.7742	100.322	199.903
7.9925	99.7738	100.322	199.904
7.995	99.7735	100.321	199.905
7.9975	99.7731	100.321	199.906
8	99.7728	100.32	199.907
8.0025	99.7724	100.32	199.908
8.005	99.7721	100.319	199.909
8.0075	99.7717	100.318	199.91
8.01	99.7714	100.318	199.911
8.0125	99.7711	100.317	199.912
8.015	99.7707	100.317	199.912
8.0175	99.7704	100.316	199.913
8.02	99.7701	100.316	199.914
8.0225	99.7698	100.315	199.915
8.025	99.7695	100.314	199.916
8.0275	99.7692	100.314	199.917
8.03	99.7689	100.313	199.918
8.0325	99.7685	100.313	199.919
8.035	99.7682	100.312	199.92
8.0375	99.7679	100.312	199.92
8.04	99.7677	100.311	199.921
8.0425	99.7674	100.31	199.922
8.045	99.7671	100.31	199.923
8.0475	99.7668	100.309	199.924
8.05	99.7665	100.309	199.925
8.0525	99.7662	100.308	199.926
8.055	99.766	100.307	199.927
8.0575	99.7657	100.307	199.927
8.06	99.7654	100.306	199.928
8.0625	99.7651	100.306	199.929
8.065	99.7649	100.305	199.93
8.0675	99.7646	100.305	199.931
8.07	99.7644	100.304	199.932
8.0725	99.7641	100.303	199.933
8.075	99.7639	100.303	199.933
8.0775	99.7636	100.302	199.934
8.08	99.7634	100.302	199.935
8.0825	99.7631	100.301	199.936
8.085	99.7629	100.3	199.937
8.0875	99.7627	100.3	199.938
8.09	99.7624	100.299	199.938
8.0925	99.7622	100.299	199.939
8.095	99.762	100.298	199.94
8.0975	99.7618	100.297	199.941
8.1	99.7615	100.297	199.942
8.1025	99.7613	100.296	199.942
8.105	99.7611	100.296	199.943
8.1075	99.7609	100.295	199.944
8.11	99.7607	100.294	199.945
8.1125	99.7605	100.294	199.946
8.115	99.7603	100.293	199.946
8.1175	99.7601	100.293	199.947
8.12	99.7599	100.292	199.948
8.1225	99.7597	100.291	199.949
8.125	99.7595	100.291	199.95
8.1275	99.7593	100.29	199.95
8.13	99.7592	100.29	199.951
8.1325	99.759	100.289	199.952
8.135	99.7588	100.288	199.953
8.1375	99.7586	100.288	199.954
8.14	99.7585	100.287	199.954
8.1425	99.7583	100.287	199.955
8.145	99.7581	100.286	199.956
8.1475	99.758	100.285	199.957
8.15	99.7578	100.285	199.957
8.1525	99.7576	100.284	199.958
8.155	99.7575	100.284	199.959
8.1575	99.7573	100.283	199.96
8.16	99.7572	100.282	199.96
8.1625	99.757	100.282	199.961
8.165	99.7569	100.281	199.962
8.1675	99.7568	100.28	199.963
8.17	99.7566	100.28	199.963
8.1725	99.7565	100.279	199.964
8.175	99.7564	100.279	199.965
8.1775	99.7562	100.278	199.966
8.18	99.7561	100.277	199.966
8.1825	99.756	100.277	199.967
8.185	99.7559	100.276	199.968
8.1875	99.7557	100.276	199.969
8.19	99.7556	100.275	199.969
8.1925	99.7555	100.274	199.97
8.195	99.7554	100.274	199.971
8.1975	99.7553	100.273	199.972
8.2	99.7552	100.273	199.972
8.2025	99.7551	100.272	199.973
8.205	99.755	100.271	199.974
8.2075	99.7549	100.271	199.974
8.21	99.7548	100.27	199.975
8.2125	99.7547	100.269	199.976
8.215	99.7546	100.269	199.977
8.2175	99.7546	100.268	199.977
8.22	99.7545	100.268	199.978
8.2225	99.7544	100.267	199.979
8.225	99.7543	100.266	199.979
8.2275	99.7542	100.266	199.98
8.23	99.7542	100.265	199.981
8.2325	99.7541	100.265	199.981
8.235	99.754	100.264	199.982
8.2375	99.754	100.263	199.983
8.24	99.7539	100.263	199.983
8.2425	99.7538	100.262	199.984
8.245	99.7538	100.261	199.985
8.2475	99.7537	100.261	199.985
8.25	99.7537	100.26	199.986
8.2525	99.7536	100.26	199.987
8.255	99.7536	100.259	199.987
8.2575	99.7535	100.258	199.988
8.26	99.7535	100.258	199.989
8.2625	99.7535	100.257	199.989
8.265	99.7534	100.257	199.99
8.2675	99.7534	100.256	199.991
8.27	99.7534	100.255	199.991
8.2725	99.7533	100.255	199.992
8.275	99.7533	100.254	199.993
8.2775	99.7533	100.253	199.993
8.28	99.7533	100.253	199.994
8.2825	99.7532	100.252	199.995
8.285	99.7532	100.252	199.995
8.2875	99.7532	100.251	199.996
8.29	99.7532	100.25	199.996
8.2925	99.7532	100.25	199.997
8.295	99.7532	100.249	199.998
8.2975	99.7532	100.248	199.998
8.3	99.7532	100.248	199.999
8.3025	99.7532	100.247	200
8.305	99.7532	100.247	200
8.3075	99.7532	100.246	200.001
8.31	99.7532	100.245	200.001
8.3125	99.7532	100.245	200.002
8.315	99.7532	100.244	200.003
8.3175	99.7532	100.244	200.003
8.32	99.7532	100.243	200.004
8.3225	99.7532	100.242	200.004
8.325	99.7533	100.242	200.005
8.3275	99.7533	100.241	200.006
8.33	99.7533	100.24	200.006
8.3325	99.7533	100.24	200.007
8.335	99.7534	100.239	200.007
8.3375	99.7534	100.239	200.008
8.34	99.7534	100.238	200.009
8.3425	99.7534	100.237	200.009
8.345	99.7535	100.237	200.01
8.3475	99.7535	100.236	200.01
8.35	99.7536	100.235	200.011
8.3525	99.7536	100.235	200.012
8.355	99.7537	100.234	200.012
8.3575	99.7537	100.234	200.013
8.36	99.7538	100.233	200.013
8.3625	99.7538	100.232	200.014
8.365	99.7539	100.232	200.014
8.3675	99.7539	100.231	200.015
8.37	99.754	100.231	200.015
8.3725	99.754	100.23	200.016
8.375	99.7541	100.229	200.017
8.3775	99.7542	100.229	200.017
8.38	99.7542	100.228	200.018
8.3825	99.7543	100.227	200.018
8.385	99.7544	100.227	200.019
8.3875	99.7544	100.226	200.019
8.39	99.7545	100.226	200.02
8.3925	99.7546	100.225	200.02
8.395	99.7547	100.224	200.021
8.3975	99.7548	100.224	200.021
8.4	99.7548	100.223	200.022
8.4025	99.7549	100.223	200.023
8.405	99.755	100.222	200.023
8.4075	99.7551	100.221	200.024
8.41	99.7552	100.221	200.024
8.4125	99.7553	100.22	200.025
8.415	99.7554	100.219	200.025
8.4175	99.7555	100.219	200.026
8.42	99.7556	100.218	200.026
8.4225	99.7557	100.218	200.027
8.425	99.7558	100.217	200.027
8.4275	99.7559	100.216	200.028
8.43	99.756	100.216	200.028
8.4325	99.7561	100.215	200.029
8.435	99.7562	100.215	200.029
8.4375	99.7563	100.214	200.03
8.44	99.7564	100.213	200.03
8.4425	99.7565	100.213	200.031
8.445	99.7567	100.212	200.031
8.4475	99.7568	100.212	200.032
8.45	99.7569	100.211	200.032
8.4525	99.757	100.21	200.033
8.455	99.7571	100.21	200.033
8.4575	99.7573	100.209	200.034
8.46	99.7574	100.209	200.034
8.4625	99.7575	100.208	200.035
8.465	99.7577	100.207	200.035
8.4675	99.7578	100.207	200.036
8.47	99.7579	100.206	200.036
8.4725	99.7581	100.205	200.036
8.475	99.7582	100.205	200.037
8.4775	99.7583	100.204	200.037
8.48	99.7585	100.204	200.038
8.4825	99.7586	100.203	200.038
8.485	99.7588	100.202	200.039
8.4875	99.7589	100.202	200.039
8.49	99.7591	100.201	200.04
8.4925	99.7592	100.201	200.04
8.495	99.7594	100.2	200.041
8.4975	99.7595	100.199	200.041
8.5	99.7597	100.199	200.041
8.5025	99.7598	100.198	200.042
8.505	99.76	100.198	200.042
8.5075	99.7602	100.197	200.043
8.51	99.7603	100.196	200.043
8.5125	99.7605	100.196	200.044
8.515	99.7607	100.195	200.044
8.5175	99.7608	100.195	200.045
8.52	99.761	100.194	200.045
8.5225	99.7612	100.193	200.045
8.525	99.7613	100.193	200.046
8.5275	99.7615	100.192	200.046
8.53	99.7617	100.192	200.047
8.5325	99.7619	100.191	200.047
8.535	99.762	100.19	200.048
8.5375	99.7622	100.19	200.048
8.54	99.7624	100.189	200.048
8.5425	99.7626	100.189	200.049
8.545	99.7628	100.188	200.049
8.5475	99.763	100.187	200.05
8.55	99.7631	100.187	200.05
8.5525	99.7633	100.186	200.05
8.555	99.7635	100.186	200.051
8.5575	99.7637	100.185	200.051
8.56	99.7639	100.184	200.052
8.5625	99.7641	100.184	200.052
8.565	99.7643	100.183	200.052
8.5675	99.7645	100.183	200.053
8.57	99.7647	100.182	200.053
8.5725	99.7649	100.182	200.054
8.575	99.7651	100.181	200.054
8.5775	99.7653	100.18	200.054
8.58	99.7655	100.18	200.055
8.5825	99.7657	100.179	200.055
8.585	99.7659	100.179	200.055
8.5875	99.7661	100.178	200.056
8.59	99.7664	100.177	200.056
8.5925	99.7666	100.177	200.057
8.595	99.7668	100.176	200.057
8.5975	99.767	100.176	200.057
8.6	99.7672	100.175	200.058
8.6025	99.7674	100.175	200.058
8.605	99.7676	100.174	200.058
8.6075	99.7679	100.173	200.059
8.61	99.7681	100.173	200.059
8.6125	99.7683	100.172	200.059
8.615	99.7685	100.172	200.06
8.6175	99.7688	100.171	200.06
8.62	99.769	100.17	200.061
8.6225	99.7692	100.17	200.061
8.625	99.7695	100.169	200.061
8.6275	99.7697	100.169	200.062
8.63	99.7699	100.168	200.062
8.6325	99.7702	100.168	200.062
8.635	99.7704	100.167	200.063
8.6375	99.7706	100.166	200.063
8.64	99.7709	100.166	200.063
8.6425	99.7711	100.165	200.064
8.645	99.7713	100.165	200.064
8.6475	99.7716	100.164	200.064
8.65	99.7718	100.164	200.065
8.6525	99.7721	100.163	200.065
8.655	99.7723	100.162	200.065
8.6575	99.7726	100.162	200.066
8.66	99.7728	100.161	200.066
8.6625	99.7731	100.161	200.066
8.665	99.7733	100.16	200.067
8.6675	99.7736	100.16	200.067
8.67	99.7738	100.159	200.067
8.6725	99.7741	100.158	200.067
8.675	99.7743	100.158	200.068
8.6775	99.7746	100.157	200.068
8.68	99.7748	100.157	200.068
8.6825	99.7751	100.156	200.069
8.685	99.7753	100.156	200.069
8.6875	99.7756	100.155	200.069
8.69	99.7759	100.154	200.07
8.6925	99.7761	100.154	200.07
8.695	99.7764	100.153	200.07
8.6975	99.7767	100.153	200.071
8.7	99.7769	100.152	200.071
8.7025	99.7772	100.152	200.071
8.705	99.7775	100.151	200.071
8.7075	99.7777	100.151	200.072
8.71	99.778	100.15	200.072
8.7125	99.7783	100.149	200.072
8.715	99.7785	100.149	200.073
8.7175	99.7788	100.148	200.073
8.72	99.7791	100.148	200.073
8.7225	99.7794	100.147	200.073
8.725	99.7796	100.147	200.074
8.7275	99.7799	100.146	200.074
8.73	99.7802	100.146	200.074
8.7325	99.7805	100.145	200.074
8.735	99.7808	100.145	200.075
8.7375	99.781	100.144	200.075
8.74	99.7813	100.143	200.075
8.7425	99.7816	100.143	200.076
8.745	99.7819	100.142	200.076
8.7475	99.7822	100.142	200.076
8.75	99.7825	100.141	200.076
8.7525	99.7827	100.141	200.077
8.755	99.783	100.14	200.077
8.7575	99.7833	100.14	200.077
8.76	99.7836	100.139	200.077
8.7625	99.7839	100.139	200.078
8.765	99.7842	100.138	200.078
8.7675	99.7845	100.137	200.078
8.77	99.7848	100.137	200.078
8.7725	99.7851	100.136	200.079
8.775	99.7854	100.136	200.079
8.7775	99.7857	100.135	200.079
8.78	99.786	100.135	200.079
8.7825	99.7863	100.134	200.08
8.785	99.7866	100.134	200.08
8.7875	99.7869	100.133	200.08
8.79	99.7872	100.133	200.08
8.7925	99.7875	100.132	200.08
8.795	99.7878	100.132	200.081
8.7975	99.7881	100.131	200.081
8.8	99.7884	100.13	200.081
8.8025	99.7887	100.13	200.081
8.805	99.789	100.129	200.082
8.8075	99.7893	100.129	200.082
8.81	99.7896	100.128	200.082
8.8125	99.7899	100.128	200.082
8.815	99.7902	100.127	200.082
8.8175	99.7905	100.127	200.083
8.82	99.7909	100.126	200.083
8.8225	99.7912	100.126	200.083
8.825	99.7915	100.125	200.083
8.8275	99.7918	100.125	200.084
8.83	99.7921	100.124	200.084
8.8325	99.7924	100.124	200.084
8.835	99.7927	100.123	200.084
8.8375	99.7931	100.123	200.084
8.84	99.7934	100.122	200.085
8.8425	99.7937	100.122	200.085
8.845	99.794	100.121	200.085
8.8475	99.7943	100.121	200.085
8.85	99.7946	100.12	200.085
8.8525	99.795	100.12	200.086
8.855	99.7953	100.119	200.086
8.8575	99.7956	100.119	200.086
8.86	99.7959	100.118	200.086
8.8625	99.7963	100.117	200.086
8.865	99.7966	100.117	200.086
8.8675	99.7969	100.116	200.087
8.87	99.7972	100.116	200.087
8.8725	99.7976	100.115	200.087
8.875	99.7979	100.115	200.087
8.8775	99.7982	100.114	200.087
8.88	99.7985	100.114	200.088
8.8825	99.7989	100.113	200.088
8.885	99.7992	100.113	200.088
8.8875	99.7995	100.112	200.088
8.89	99.7999	100.112	200.088
8.8925	99.8002	100.111	200.088
8.895	99.8005	100.111	200.089
8.8975	99.8009	100.11	200.089
8.9	99.8012	100.11	200.089
8.9025	99.8015	100.109	200.089
8.905	99.8019	100.109	200.089
8.9075	99.8022	100.108	200.089
8.91	99.8025	100.108	200.09
8.9125	99.8029	100.107	200.09
8.915	99.8032	100.107	200.09
8.9175	99.8035	100.106	200.09
8.92	99.8039	100.106	200.09
8.9225	99.8042	100.105	200.09
8.925	99.8046	100.105	200.09
8.9275	99.8049	100.105	200.091
8.93	99.8052	100.104	200.091
8.9325	99.8056	100.104	200.091
8.935	99.8059	100.103	200.091
8.9375	99.8063	100.103	200.091
8.94	99.8066	100.102	200.091
8.9425	99.807	100.102	200.091
8.945	99.8073	100.101	200.092
8.9475	99.8076	100.101	200.092
8.95	99.808	100.1	200.092
8.9525	99.8083	100.1	200.092
8.955	99.8087	100.099	200.092
8.9575	99.809	100.099	200.092
8.96	99.8094	100.098	200.092
8.9625	99.8097	100.098	200.093
8.965	99.8101	100.097	200.093
8.9675	99.8104	100.097	200.093
8.97	99.8108	100.096	200.093
8.9725	99.8111	100.096	200.093
8.975	99.8115	100.095	200.093
8.9775	99.8118	100.095	200.093
8.98	99.8122	100.094	200.093
8.9825	99.8125	100.094	200.094
8.985	99.8129	100.093	200.094
8.9875	99.8132	100.093	200.094
8.99	99.8136	100.093	200.094
8.9925	99.8139	100.092	200.094
8.995	99.8143	100.092	200.094
8.9975	99.8146	100.091	200.094
9	99.815	100.091	200.094
9.0025	99.8153	100.09	200.094
9.005	99.8157	100.09	200.095
9.0075	99.816	100.089	200.095
9.01	99.8164	100.089	200.095
9.0125	99.8168	100.088	200.095
9.015	99.8171	100.088	200.095
9.0175	99.8175	100.087	200.095
9.02	99.8178	100.087	200.095
9.0225	99.8182	100.087	200.095
9.025	99.8185	100.086	200.095
9.0275	99.8189	100.086	200.095
9.03	99.8193	100.085	200.096
9.0325	99.8196	100.085	200.096
9.035	99.82	100.084	200.096
9.0375	99.8203	100.084	200.096
9.04	99.8207	100.083	200.096
9.0425	99.8211	100.083	200.096
9.045	99.8214	100.083	200.096
9.0475	99.8218	100.082	200.096
9.05	99.8221	100.082	200.096
9.0525	99.8225	100.081	200.096
9.055	99.8229	100.081	200.096
9.0575	99.8232	100.08	200.096
9.06	99.8236	100.08	200.097
9.0625	99.8239	100.079	200.097
9.065	99.8243	100.079	200.097
9.0675	99.8247	100.079	200.097
9.07	99.825	100.078	200.097
9.0725	99.8254	100.078	200.097
9.075	99.8258	100.077	200.097
9.0775	99.8261	100.077	200.097
9.08	99.8265	100.076	200.097
9.0825	99.8269	100.076	200.097
9.085	99.8272	100.075	200.097
9.0875	99.8276	100.075	200.097
9.09	99.828	100.075	200.097
9.0925	99.8283	100.074	200.097
9.095	99.8287	100.074	200.098
9.0975	99.8291	100.073	200.098
9.1	99.8294	100.073	200.098
9.1025	99.8298	100.072	200.098
9.105	99.8302	100.072	200.098
9.1075	99.8305	100.072	200.098
9.11	99.8309	100.071	200.098
9.1125	99.8313	100.071	200.098
9.115	99.8316	100.07	200.098
9.1175	99.832	100.07	200.098
9.12	99.8324	100.07	200.098
9.1225	99.8327	100.069	200.098
9.125	99.8331	100.069	200.098
9.1275	99.8335	100.068	200.098
9.13	99.8338	100.068	200.098
9.1325	99.8342	100.067	200.098
9.135	99.8346	100.067	200.098
9.1375	99.8349	100.067	200.098
9.14	99.8353	100.066	200.098
9.1425	99.8357	100.066	200.099
9.145	99.836	100.065	200.099
9.1475	99.8364	100.065	200.099
9.15	99.8368	100.065	200.099
9.1525	99.8372	100.064	200.099
9.155	99.8375	100.064	200.099
9.1575	99.8379	100.063	200.099
9.16	99.8383	100.063	200.099
9.1625	99.8386	100.063	200.099
9.165	99.839	100.062	200.099
9.1675	99.8394	100.062	200.099
9.17	99.8398	100.061	200.099
9.1725	99.8401	100.061	200.099
9.175	99.8405	100.061	200.099
9.1775	99.8409	100.06	200.099
9.18	99.8412	100.06	200.099
9.1825	99.8416	100.059	200.099
9.185	99.842	100.059	200.099
9.1875	99.8424	100.059	200.099
9.19	99.8427	100.058	200.099
9.1925	99.8431	100.058	200.099
9.195	99.8435	100.057	200.099
9.1975	99.8438	100.057	200.099
9.2	99.8442	100.057	200.099
9.2025	99.8446	100.056	200.099
9.205	99.845	100.056	200.099
9.2075	99.8453	100.055	200.099
9.21	99.8457	100.055	200.099
9.2125	99.8461	100.055	200.099
9.215	99.8464	100.054	200.099
9.2175	99.8468	100.054	200.099
9.22	99.8472	100.053	200.099
9.2225	99.8476	100.053	200.099
9.225	99.8479	100.053	200.099
9.2275	99.8483	100.052	200.099
9.23	99.8487	100.052	200.099
9.2325	99.8491	100.052	200.099
9.235	99.8494	100.051	200.099
9.2375	99.8498	100.051	200.099
9.24	99.8502	100.05	200.099
9.2425	99.8505	100.05	200.099
9.245	99.8509	100.05	200.099
9.2475	99.8513	100.049	200.099
9.25	99.8517	100.049	200.099
9.2525	99.852	100.049	200.099
9.255	99.8524	100.048	200.099
9.2575	99.8528	100.048	200.099
9.26	99.8532	100.047	200.099
9.2625	99.8535	100.047	200.099
9.265	99.8539	100.047	200.099
9.2675	99.8543	100.046	200.099
9.27	99.8546	100.046	200.099
9.2725	99.855	100.046	200.099
9.275	99.8554	100.045	200.099
9.2775	99.8558	100.045	200.099
9.28	99.8561	100.045	200.099
9.2825	99.8565	100.044	200.099
9.285	99.8569	100.044	200.099
9.2875	99.8573	100.044	200.099
9.29	99.8576	100.043	200.099
9.2925	99.858	100.043	200.099
9.295	99.8584	100.042	200.099
9.2975	99.8587	100.042	200.099
9.3	99.8591	100.042	200.099
9.3025	99.8595	100.041	200.099
9.305	99.8599	100.041	200.099
9.3075	99.8602	100.041	200.099
9.31	99.8606	100.04	200.099
9.3125	99.861	100.04	200.099
9.315	99.8613	100.04	200.099
9.3175	99.8617	100.039	200.099
9.32	99.8621	100.039	200.099
9.3225	99.8625	100.039	200.099
9.325	99.8628	100.038	200.099
9.3275	99.8632	100.038	200.099
9.33	99.8636	100.038	200.099
9.3325	99.8639	100.037	200.099
9.335	99.8643	100.037	200.099
9.3375	99.8647	100.037	200.099
9.34	99.8651	100.036	200.099
9.3425	99.8654	100.036	200.099
9.345	99.8658	100.036	200.099
9.3475	99.8662	100.035	200.099
9.35	99.8665	100.035	200.099
9.3525	99.8669	100.035	200.099
9.355	99.8673	100.034	200.099
9.3575	99.8676	100.034	200.098
9.36	99.868	100.034	200.098
9.3625	99.8684	100.033	200.098
9.365	99.8688	100.033	200.098
9.3675	99.8691	100.033	200.098
9.37	99.8695	100.032	200.098
9.3725	99.8699	100.032	200.098
9.375	99.8702	100.032	200.098
9.3775	99.8706	100.031	200.098
9.38	99.871	100.031	200.098
9.3825	99.8713	100.031	200.098
9.385	99.8717	100.03	200.098
9.3875	99.8721	100.03	200.098
9.39	99.8724	100.03	200.098
9.3925	99.8728	100.029	200.098
9.395	99.8732	100.029	200.098
9.3975	99.8735	100.029	200.098
9.4	99.8739	100.028	200.098
9.4025	99.8743	100.028	200.098
9.405	99.8746	100.028	200.098
9.4075	99.875	100.027	200.098
9.41	99.8754	100.027	200.098
9.4125	99.8757	100.027	200.097
9.415	99.8761	100.027	200.097
9.4175	99.8765	100.026	200.097
9.42	99.8768	100.026	200.097
9.4225	99.8772	100.026	200.097
9.425	99.8776	100.025	200.097
9.4275	99.8779	100.025	200.097
9.43	99.8783	100.025	200.097
9.4325	99.8787	100.024	200.097
9.435	99.879	100.024	200.097
9.4375	99.8794	100.024	200.097
9.44	99.8797	100.023	200.097
9.4425	99.8801	100.023	200.097
9.445	99.8805	100.023	200.097
9.4475	99.8808	100.023	200.097
9.45	99.8812	100.022	200.097
9.4525	99.8816	100.022	200.096
9.455	99.8819	100.022	200.096
9.4575	99.8823	100.021	200.096
9.46	99.8826	100.021	200.096
9.4625	99.883	100.021	200.096
9.465	99.8834	100.02	200.096
9.4675	99.8837	100.02	200.096
9.47	99.8841	100.02	200.096
9.4725	99.8844	100.02	200.096
9.475	99.8848	100.019	200.096
9.4775	99.8852	100.019	200.096
9.48	99.8855	100.019	200.096
9.4825	99.8859	100.018	200.096
9.485	99.8862	100.018	200.096
9.4875	99.8866	100.018	200.096
9.49	99.887	100.018	200.095
9.4925	99.8873	100.017	200.095
9.495	99.8877	100.017	200.095
9.4975	99.888	100.017	200.095
9.5	99.8884	100.016	200.095
9.5025	99.8887	100.016	200.095
9.505	99.8891	100.016	200.095
9.5075	99.8895	100.016	200.095
9.51	99.8898	100.015	200.095
9.5125	99.8902	100.015	200.095
9.515	99.8905	100.015	200.095
9.5175	99.8909	100.015	200.095
9.52	99.8912	100.014	200.094
9.5225	99.8916	100.014	200.094
9.525	99.8919	100.014	200.094
9.5275	99.8923	100.013	200.094
9.53	99.8926	100.013	200.094
9.5325	99.893	100.013	200.094
9.535	99.8933	100.013	200.094
9.5375	99.8937	100.012	200.094
9.54	99.8941	100.012	200.094
9.5425	99.8944	100.012	200.094
9.545	99.8948	100.012	200.094
9.5475	99.8951	100.011	200.094
9.55	99.8955	100.011	200.093
9.5525	99.8958	100.011	200.093
9.555	99.8962	100.011	200.093
9.5575	99.8965	100.01	200.093
9.56	99.8969	100.01	200.093
9.5625	99.8972	100.01	200.093
9.565	99.8976	100.01	200.093
9.5675	99.8979	100.009	200.093
9.57	99.8982	100.009	200.093
9.5725	99.8986	100.009	200.093
9.575	99.8989	100.009	200.093
9.5775	99.8993	100.008	200.092
9.58	99.8996	100.008	200.092
9.5825	99.9	100.008	200.092
9.585	99.9003	100.008	200.092
9.5875	99.9007	100.007	200.092
9.59	99.901	100.007	200.092
9.5925	99.9014	100.007	200.092
9.595	99.9017	100.007	200.092
9.5975	99.9021	100.006	200.092
9.6	99.9024	100.006	200.092
9.6025	99.9027	100.006	200.091
9.605	99.9031	100.006	200.091
9.6075	99.9034	100.005	200.091
9.61	99.9038	100.005	200.091
9.6125	99.9041	100.005	200.091
9.615	99.9044	100.005	200.091
9.6175	99.9048	100.004	200.091
9.62	99.9051	100.004	200.091
9.6225	99.9055	100.004	200.091
9.625	99.9058	100.004	200.091
9.6275	99.9061	100.003	200.09
9.63	99.9065	100.003	200.09
9.6325	99.9068	100.003	200.09
9.635	99.9072	100.003	200.09
9.6375	99.9075	100.002	200.09
9.64	99.9078	100.002	200.09
9.6425	99.9082	100.002	200.09
9.645	99.9085	100.002	200.09
9.6475	99.9088	100.002	200.09
9.65	99.9092	100.001	200.089
9.6525	99.9095	100.001	200.089
9.655	99.9099	100.001	200.089
9.6575	99.9102	100.001	200.089
9.66	99.9105	100	200.089
9.6625	99.9109	100	200.089
9.665	99.9112	100	200.089
9.6675	99.9115	99.9998	200.089
9.67	99.9119	99.9995	200.089
9.6725	99.9122	99.9993	200.088
9.675	99.9125	99.9991	200.088
9.6775	99.9129	99.9989	200.088
9.68	99.9132	99.9987	200.088
9.6825	99.9135	99.9984	200.088
9.685	99.9138	99.9982	200.088
9.6875	99.9142	99.998	200.088
9.69	99.9145	99.9978	200.088
9.6925	99.9148	99.9976	200.088
9.695	99.9152	99.9974	200.087
9.6975	99.9155	99.9972	200.087
9.7	99.9158	99.997	200.087
9.7025	99.9161	99.9967	200.087
9.705	99.9165	99.9965	200.087
9.7075	99.9168	99.9963	200.087
9.71	99.9171	99.9961	200.087
9.7125	99.9174	99.9959	200.087
9.715	99.9178	99.9957	200.087
9.7175	99.9181	99.9955	200.086
9.72	99.9184	99.9953	200.086
9.7225	99.9187	99.9951	200.086
9.725	99.9191	99.9949	200.086
9.7275	99.9194	99.9947	200.086
9.73	99.9197	99.9945	200.086
9.7325	99.92	99.9943	200.086
9.735	99.9203	99.9941	200.086
9.7375	99.9207	99.9939	200.085
9.74	99.921	99.9937	200.085
9.7425	99.9213	99.9935	200.085
9.745	99.9216	99.9933	200.085
9.7475	99.9219	99.9931	200.085
9.75	99.9223	99.9929	200.085
9.7525	99.9226	99.9927	200.085
9.755	99.9229	99.9925	200.085
9.7575	99.9232	99.9923	200.084
9.76	99.9235	99.9921	200.084
9.7625	99.9239	99.9919	200.084
9.765	99.9242	99.9918	200.084
9.7675	99.9245	99.9916	200.084
9.77	99.9248	99.9914	200.084
9.7725	99.9251	99.9912	200.084
9.775	99.9254	99.991	200.084
9.7775	99.9257	99.9908	200.083
9.78	99.926	99.9906	200.083
9.7825	99.9264	99.9904	200.083
9.785	99.9267	99.9903	200.083
9.7875	99.927	99.9901	200.083
9.79	99.9273	99.9899	200.083
9.7925	99.9276	99.9897	200.083
9.795	99.9279	99.9895	200.083
9.7975	99.9282	99.9894	200.082
9.8	99.9285	99.9892	200.082
9.8025	99.9288	99.989	200.082
9.805	99.9291	99.9888	200.082
9.8075	99.9295	99.9886	200.082
9.81	99.9298	99.9885	200.082
9.8125	99.9301	99.9883	200.082
9.815	99.9304	99.9881	200.082
9.8175	99.9307	99.9879	200.081
9.82	99.931	99.9878	200.081
9.8225	99.9313	99.9876	200.081
9.825	99.9316	99.9874	200.081
9.8275	99.9319	99.9873	200.081
9.83	99.9322	99.9871	200.081
9.8325	99.9325	99.9869	200.081
9.835	99.9328	99.9868	200.08
9.8375	99.9331	99.9866	200.08
9.84	99.9334	99.9864	200.08
9.8425	99.9337	99.9863	200.08
9.845	99.934	99.9861	200.08
9.8475	99.9343	99.9859	200.08
9.85	99.9346	99.9858	200.08
9.8525	99.9349	99.9856	200.079
9.855	99.9352	99.9854	200.079
9.8575	99.9355	99.9853	200.079
9.86	99.9358	99.9851	200.079
9.8625	99.9361	99.985	200.079
9.865	99.9364	99.9848	200.079
9.8675	99.9367	99.9846	200.079
9.87	99.937	99.9845	200.079
9.8725	99.9373	99.9843	200.078
9.875	99.9376	99.9842	200.078
9.8775	99.9379	99.984	200.078
9.88	99.9382	99.9839	200.078
9.8825	99.9384	99.9837	200.078
9.885	99.9387	99.9835	200.078
9.8875	99.939	99.9834	200.078
9.89	99.9393	99.9832	200.077
9.8925	99.9396	99.9831	200.077
9.895	99.9399	99.9829	200.077
9.8975	99.9402	99.9828	200.077
9.9	99.9405	99.9826	200.077
9.9025	99.9408	99.9825	200.077
9.905	99.9411	99.9823	200.077
9.9075	99.9413	99.9822	200.076
9.91	99.9416	99.982	200.076
9.9125	99.9419	99.9819	200.076
9.915	99.9422	99.9818	200.076
9.9175	99.9425	99.9816	200.076
9.92	99.9428	99.9815	200.076
9.9225	99.943	99.9813	200.076
9.925	99.9433	99.9812	200.075
9.9275	99.9436	99.981	200.075
9.93	99.9439	99.9809	200.075
9.9325	99.9442	99.9808	200.075
9.935	99.9445	99.9806	200.075
9.9375	99.9447	99.9805	200.075
9.94	99.945	99.9803	200.075
9.9425	99.9453	99.9802	200.074
9.945	99.9456	99.9801	200.074
9.9475	99.9459	99.9799	200.074
9.95	99.9461	99.9798	200.074
9.9525	99.9464	99.9797	200.074
9.955	99.9467	99.9795	200.074
9.9575	99.947	99.9794	200.074
9.96	99.9472	99.9793	200.073
9.9625	99.9475	99.9791	200.073
9.965	99.9478	99.979	200.073
9.9675	99.9481	99.9789	200.073
9.97	99.9483	99.9787	200.073
9.9725	99.9486	99.9786	200.073
9.975	99.9489	99.9785	200.073
9.9775	99.9492	99.9784	200.072
9.98	99.9494	99.9782	200.072
9.9825	99.9497	99.9781	200.072
9.985	99.95	99.978	200.072
9.9875	99.9502	99.9779	200.072
9.99	99.9505	99.9777	200.072
9.9925	99.9508	99.9776	200.072
9.995	99.951	99.9775	200.071
9.9975	99.9513	99.9774	200.071
10	99.9516	99.9772	200.071
10.0025	99.9518	99.9771	200.071
10.005	99.9521	99.977	200.071
10.0075	99.9524	99.9769	200.071
10.01	99.9526	99.9768	200.071
10.0125	99.9529	99.9767	200.07
10.015	99.9532	99.9765	200.07
10.0175	99.9534	99.9764	200.07
10.02	99.9537	99.9763	200.07
10.0225	99.954	99.9762	200.07
10.025	99.9542	99.9761	200.07
10.0275	99.9545	99.976	200.07
10.03	99.9547	99.9758	200.069
10.0325	99.955	99.9757	200.069
10.035	99.9553	99.9756	200.069
10.0375	99.9555	99.9755	200.069
10.04	99.9558	99.9754	200.069
10.0425	99.956	99.9753	200.069
10.045	99.9563	99.9752	200.069
10.0475	99.9566	99.9751	200.068
10.05	99.9568	99.975	200.068
10.0525	99.9571	99.9749	200.068
10.055	99.9573	99.9747	200.068
10.0575	99.9576	99.9746	200.068
10.06	99.9578	99.9745	200.068
10.0625	99.9581	99.9744	200.067
10.065	99.9583	99.9743	200.067
10.0675	99.9586	99.9742	200.067
10.07	99.9588	99.9741	200.067
10.0725	99.9591	99.974	200.067
10.075	99.9593	99.9739	200.067
10.0775	99.9596	99.9738	200.067
10.08	99.9598	99.9737	200.066
10.0825	99.9601	99.9736	200.066
10.085	99.9603	99.9735	200.066
10.0875	99.9606	99.9734	200.066
10.09	99.9608	99.9733	200.066
10.0925	99.9611	99.9732	200.066
10.095	99.9613	99.9731	200.066
10.0975	99.9616	99.973	200.065
10.1	99.9618	99.9729	200.065
10.1025	99.9621	99.9728	200.065
10.105	99.9623	99.9727	200.065
10.1075	99.9625	99.9726	200.065
10.11	99.9628	99.9726	200.065
10.1125	99.963	99.9725	200.065
10.115	99.9633	99.9724	200.064
10.1175	99.9635	99.9723	200.064
10.12	99.9638	99.9722	200.064
10.1225	99.964	99.9721	200.064
10.125	99.9642	99.972	200.064
10.1275	99.9645	99.9719	200.064
10.13	99.9647	99.9718	200.063
10.1325	99.9649	99.9717	200.063
10.135	99.9652	99.9717	200.063
10.1375	99.9654	99.9716	200.063
10.14	99.9657	99.9715	200.063
10.1425	99.9659	99.9714	200.063
10.145	99.9661	99.9713	200.063
10.1475	99.9664	99.9712	200.062
10.15	99.9666	99.9711	200.062
10.1525	99.9668	99.9711	200.062
10.155	99.9671	99.971	200.062
10.1575	99.9673	99.9709	200.062
10.16	99.9675	99.9708	200.062
10.1625	99.9678	99.9707	200.062
10.165	99.968	99.9706	200.061
10.1675	99.9682	99.9706	200.061
10.17	99.9684	99.9705	200.061
10.1725	99.9687	99.9704	200.061
10.175	99.9689	99.9703	200.061
10.1775	99.9691	99.9703	200.061
10.18	99.9694	99.9702	200.06
10.1825	99.9696	99.9701	200.06
10.185	99.9698	99.97	200.06
10.1875	99.97	99.97	200.06
10.19	99.9703	99.9699	200.06
10.1925	99.9705	99.9698	200.06
10.195	99.9707	99.9697	200.06
10.1975	99.9709	99.9697	200.059
10.2	99.9712	99.9696	200.059
10.2025	99.9714	99.9695	200.059
10.205	99.9716	99.9694	200.059
10.2075	99.9718	99.9694	200.059
10.21	99.972	99.9693	200.059
10.2125	99.9723	99.9692	200.059
10.215	99.9725	99.9692	200.058
10.2175	99.9727	99.9691	200.058
10.22	99.9729	99.969	200.058
10.2225	99.9731	99.969	200.058
10.225	99.9733	99.9689	200.058
10.2275	99.9736	99.9688	200.058
10.23	99.9738	99.9688	200.057
10.2325	99.974	99.9687	200.057
10.235	99.9742	99.9686	200.057
10.2375	99.9744	99.9686	200.057
10.24	99.9746	99.9685	200.057
10.2425	99.9748	99.9684	200.057
10.245	99.9751	99.9684	200.057
10.2475	99.9753	99.9683	200.056
10.25	99.9755	99.9683	200.056
10.2525	99.9757	99.9682	200.056
10.255	99.9759	99.9681	200.056
10.2575	99.9761	99.9681	200.056
10.26	99.9763	99.968	200.056
10.2625	99.9765	99.968	200.056
10.265	99.9767	99.9679	200.055
10.2675	99.9769	99.9678	200.055
10.27	99.9772	99.9678	200.055
10.2725	99.9774	99.9677	200.055
10.275	99.9776	99.9677	200.055
10.2775	99.9778	99.9676	200.055
10.28	99.978	99.9676	200.054
10.2825	99.9782	99.9675	200.054
10.285	99.9784	99.9674	200.054
10.2875	99.9786	99.9674	200.054
10.29	99.9788	99.9673	200.054
10.2925	99.979	99.9673	200.054
10.295	99.9792	99.9672	200.054
10.2975	99.9794	99.9672	200.053
10.3	99.9796	99.9671	200.053
10.3025	99.9798	99.9671	200.053
10.305	99.98	99.967	200.053
10.3075	99.9802	99.967	200.053
10.31	99.9804	99.9669	200.053
10.3125	99.9806	99.9669	200.053
10.315	99.9808	99.9668	200.052
10.3175	99.981	99.9668	200.052
10.32	99.9812	99.9667	200.052
10.3225	99.9814	99.9667	200.052
10.325	99.9816	99.9666	200.052
10.3275	99.9818	99.9666	200.052
10.33	99.9819	99.9666	200.051
10.3325	99.9821	99.9665	200.051
10.335	99.9823	99.9665	200.051
10.3375	99.9825	99.9664	200.051
10.34	99.9827	99.9664	200.051
10.3425	99.9829	99.9663	200.051
10.345	99.9831	99.9663	200.051
10.3475	99.9833	99.9662	200.05
10.35	99.9835	99.9662	200.05
10.3525	99.9837	99.9662	200.05
10.355	99.9839	99.9661	200.05
10.3575	99.984	99.9661	200.05
10.36	99.9842	99.966	200.05
10.3625	99.9844	99.966	200.05
10.365	99.9846	99.966	200.049
10.3675	99.9848	99.9659	200.049
10.37	99.985	99.9659	200.049
10.3725	99.9852	99.9659	200.049
10.375	99.9853	99.9658	200.049
10.3775	99.9855	99.9658	200.049
10.38	99.9857	99.9657	200.049
10.3825	99.9859	99.9657	200.048
10.385	99.9861	99.9657	200.048
10.3875	99.9862	99.9656	200.048
10.39	99.9864	99.9656	200.048
10.3925	99.9866	99.9656	200.048
10.395	99.9868	99.9655	200.048
10.3975	99.987	99.9655	200.048
10.4	99.9871	99.9655	200.047
10.4025	99.9873	99.9654	200.047
10.405	99.9875	99.9654	200.047
10.4075	99.9877	99.9654	200.047
10.41	99.9878	99.9653	200.047
10.4125	99.988	99.9653	200.047
10.415	99.9882	99.9653	200.047
10.4175	99.9884	99.9653	200.046
10.42	99.9885	99.9652	200.046
10.4225	99.9887	99.9652	200.046
10.425	99.9889	99.9652	200.046
10.4275	99.9891	99.9651	200.046
10.43	99.9892	99.9651	200.046
10.4325	99.9894	99.9651	200.046
10.435	99.9896	99.9651	200.045
10.4375	99.9897	99.965	200.045
10.44	99.9899	99.965	200.045
10.4425	99.9901	99.965	200.045
10.445	99.9902	99.965	200.045
10.4475	99.9904	99.9649	200.045
10.45	99.9906	99.9649	200.044
10.4525	99.9908	99.9649	200.044
10.455	99.9909	99.9649	200.044
10.4575	99.9911	99.9648	200.044
10.46	99.9912	99.9648	200.044
10.4625	99.9914	99.9648	200.044
10.465	99.9916	99.9648	200.044
10.4675	99.9917	99.9648	200.043
10.47	99.9919	99.9647	200.043
10.4725	99.9921	99.9647	200.043
10.475	99.9922	99.9647	200.043
10.4775	99.9924	99.9647	200.043
10.48	99.9925	99.9647	200.043
10.4825	99.9927	99.9646	200.043
10.485	99.9929	99.9646	200.043
10.4875	99.993	99.9646	200.042
10.49	99.9932	99.9646	200.042
10.4925	99.9933	99.9646	200.042
10.495	99.9935	99.9646	200.042
10.4975	99.9937	99.9645	200.042
10.5	99.9938	99.9645	200.042
10.5025	99.994	99.9645	200.042
10.505	99.9941	99.9645	200.041
10.5075	99.9943	99.9645	200.041
10.51	99.9944	99.9645	200.041
10.5125	99.9946	99.9645	200.041
10.515	99.9947	99.9644	200.041
10.5175	99.9949	99.9644	200.041
10.52	99.995	99.9644	200.041
10.5225	99.9952	99.9644	200.04
10.525	99.9954	99.9644	200.04
10.5275	99.9955	99.9644	200.04
10.53	99.9957	99.9644	200.04
10.5325	99.9958	99.9644	200.04
10.535	99.996	99.9644	200.04
10.5375	99.9961	99.9643	200.04
10.54	99.9962	99.9643	200.039
10.5425	99.9964	99.9643	200.039
10.545	99.9965	99.9643	200.039
10.5475	99.9967	99.9643	200.039
10.55	99.9968	99.9643	200.039
10.5525	99.997	99.9643	200.039
10.555	99.9971	99.9643	200.039
10.5575	99.9973	99.9643	200.038
10.56	99.9974	99.9643	200.038
10.5625	99.9976	99.9643	200.038
10.565	99.9977	99.9643	200.038
10.5675	99.9978	99.9643	200.038
10.57	99.998	99.9642	200.038
10.5725	99.9981	99.9642	200.038
10.575	99.9983	99.9642	200.037
10.5775	99.9984	99.9642	200.037
10.58	99.9985	99.9642	200.037
10.5825	99.9987	99.9642	200.037
10.585	99.9988	99.9642	200.037
10.5875	99.999	99.9642	200.037
10.59	99.9991	99.9642	200.037
10.5925	99.9992	99.9642	200.037
10.595	99.9994	99.9642	200.036
10.5975	99.9995	99.9642	200.036
10.6	99.9996	99.9642	200.036
10.6025	99.9998	99.9642	200.036
10.605	99.9999	99.9642	200.036
10.6075	100	99.9642	200.036
10.61	100	99.9642	200.036
10.6125	100	99.9642	200.035
10.615	100	99.9642	200.035
10.6175	100.001	99.9642	200.035
10.62	100.001	99.9642	200.035
10.6225	100.001	99.9642	200.035
10.625	100.001	99.9642	200.035
10.6275	100.001	99.9642	200.035
10.63	100.001	99.9642	200.035
10.6325	100.001	99.9642	200.034
10.635	100.001	99.9642	200.034
10.6375	100.002	99.9642	200.034
10.64	100.002	99.9642	200.034
10.6425	100.002	99.9642	200.034
10.645	100.002	99.9642	200.034
10.6475	100.002	99.9643	200.034
10.65	100.002	99.9643	200.033
10.6525	100.002	99.9643	200.033
10.655	100.003	99.9643	200.033
10.6575	100.003	99.9643	200.033
10.66	100.003	99.9643	200.033
10.6625	100.003	99.9643	200.033
10.665	100.003	99.9643	200.033
10.6675	100.003	99.9643	200.033
10.67	100.003	99.9643	200.032
10.6725	100.003	99.9643	200.032
10.675	100.003	99.9643	200.032
10.6775	100.004	99.9643	200.032
10.68	100.004	99.9643	200.032
10.6825	100.004	99.9644	200.032
10.685	100.004	99.9644	200.032
10.6875	100.004	99.9644	200.032
10.69	100.004	99.9644	200.031
10.6925	100.004	99.9644	200.031
10.695	100.004	99.9644	200.031
10.6975	100.005	99.9644	200.031
10.7	100.005	99.9644	200.031
10.7025	100.005	99.9644	200.031
10.705	100.005	99.9645	200.031
10.7075	100.005	99.9645	200.031
10.71	100.005	99.9645	200.03
10.7125	100.005	99.9645	200.03
10.715	100.005	99.9645	200.03
10.7175	100.005	99.9645	200.03
10.72	100.006	99.9645	200.03
10.7225	100.006	99.9645	200.03
10.725	100.006	99.9646	200.03
10.7275	100.006	99.9646	200.03
10.73	100.006	99.9646	200.029
10.7325	100.006	99.9646	200.029
10.735	100.006	99.9646	200.029
10.7375	100.006	99.9646	200.029
10.74	100.006	99.9647	200.029
10.7425	100.007	99.9647	200.029
10.745	100.007	99.9647	200.029
10.7475	100.007	99.9647	200.029
10.75	100.007	99.9647	200.028
10.7525	100.007	99.9647	200.028
10.755	100.007	99.9648	200.028
10.7575	100.007	99.9648	200.028
10.76	100.007	99.9648	200.028
10.7625	100.007	99.9648	200.028
10.765	100.008	99.9648	200.028
10.7675	100.008	99.9648	200.028
10.77	100.008	99.9649	200.027
10.7725	100.008	99.9649	200.027
10.775	100.008	99.9649	200.027
10.7775	100.008	99.9649	200.027
10.78	100.008	99.9649	200.027
10.7825	100.008	99.965	200.027
10.785	100.008	99.965	200.027
10.7875	100.008	99.965	200.027
10.79	100.009	99.965	200.026
10.7925	100.009	99.9651	200.026
10.795	100.009	99.9651	200.026
10.7975	100.009	99.9651	200.026
10.8	100.009	99.9651	200.026
10.8025	100.009	99.9651	200.026
10.805	100.009	99.9652	200.026
10.8075	100.009	99.9652	200.026
10.81	100.009	99.9652	200.025
10.8125	100.009	99.9652	200.025
10.815	100.01	99.9653	200.025
10.8175	100.01	99.9653	200.025
10.82	100.01	99.9653	200.025
10.8225	100.01	99.9653	200.025
10.825	100.01	99.9654	200.025
10.8275	100.01	99.9654	200.025
10.83	100.01	99.9654	200.025
10.8325	100.01	99.9654	200.024
10.835	100.01	99.9655	200.024
10.8375	100.01	99.9655	200.024
10.84	100.01	99.9655	200.024
10.8425	100.011	99.9655	200.024
10.845	100.011	99.9656	200.024
10.8475	100.011	99.9656	200.024
10.85	100.011	99.9656	200.024
10.8525	100.011	99.9656	200.023
10.855	100.011	99.9657	200.023
10.8575	100.011	99.9657	200.023
10.86	100.011	99.9657	200.023
10.8625	100.011	99.9657	200.023
10.865	100.011	99.9658	200.023
10.8675	100.011	99.9658	200.023
10.87	100.011	99.9658	200.023
10.8725	100.012	99.9659	200.023
10.875	100.012	99.9659	200.022
10.8775	100.012	99.9659	200.022
10.88	100.012	99.966	200.022
10.8825	100.012	99.966	200.022
10.885	100.012	99.966	200.022
10.8875	100.012	99.966	200.022
10.89	100.012	99.9661	200.022
10.8925	100.012	99.9661	200.022
10.895	100.012	99.9661	200.022
10.8975	100.012	99.9662	200.021
10.9	100.012	99.9662	200.021
10.9025	100.013	99.9662	200.021
10.905	100.013	99.9663	200.021
10.9075	100.013	99.9663	200.021
10.91	100.013	99.9663	200.021
10.9125	100.013	99.9664	200.021
10.915	100.013	99.9664	200.021
10.9175	100.013	99.9664	200.021
10.92	100.013	99.9664	200.02
10.9225	100.013	99.9665	200.02
10.925	100.013	99.9665	200.02
10.9275	100.013	99.9665	200.02
10.93	100.013	99.9666	200.02
10.9325	100.013	99.9666	200.02
10.935	100.014	99.9666	200.02
10.9375	100.014	99.9667	200.02
10.94	100.014	99.9667	200.02
10.9425	100.014	99.9668	200.019
10.945	100.014	99.9668	200.019
10.9475	100.014	99.9668	200.019
10.95	100.014	99.9669	200.019
10.9525	100.014	99.9669	200.019
10.955	100.014	99.9669	200.019
10.9575	100.014	99.967	200.019
10.96	100.014	99.967	200.019
10.9625	100.014	99.967	200.019
10.965	100.014	99.9671	200.019
10.9675	100.014	99.9671	200.018
10.97	100.015	99.9671	200.018
10.9725	100.015	99.9672	200.018
10.975	100.015	99.9672	200.018
10.9775	100.015	99.9673	200.018
10.98	100.015	99.9673	200.018
10.9825	100.015	99.9673	200.018
10.985	100.015	99.9674	200.018
10.9875	100.015	99.9674	200.018
10.99	100.015	99.9674	200.017
10.9925	100.015	99.9675	200.017
10.995	100.015	99.9675	200.017
10.9975	100.015	99.9676	200.017
11	100.015	99.9676	200.017
11.0025	100.015	99.9676	200.017
11.005	100.015	99.9677	200.017
11.0075	100.016	99.9677	200.017
11.01	100.016	99.9677	200.017
11.0125	100.016	99.9678	200.017
11.015	100.016	99.9678	200.016
11.0175	100.016	99.9679	200.016
11.02	100.016	99.9679	200.016
11.0225	100.016	99.9679	200.016
11.025	100.016	99.968	200.016
11.0275	100.016	99.968	200.016
11.03	100.016	99.9681	200.016
11.0325	100.016	99.9681	200.016
11.035	100.016	99.9681	200.016
11.0375	100.016	99.9682	200.016
11.04	100.016	99.9682	200.015
11.0425	100.016	99.9683	200.015
11.045	100.016	99.9683	200.015
11.0475	100.016	99.9683	200.015
11.05	100.017	99.9684	200.015
11.0525	100.017	99.9684	200.015
11.055	100.017	99.9685	200.015
11.0575	100.017	99.9685	200.015
11.06	100.017	99.9686	200.015
11.0625	100.017	99.9686	200.015
11.065	100.017	99.9686	200.014
11.0675	100.017	99.9687	200.014
11.07	100.017	99.9687	200.014
11.0725	100.017	99.9688	200.014
11.075	100.017	99.9688	200.014
11.0775	100.017	99.9689	200.014
11.08	100.017	99.9689	200.014
11.0825	100.017	99.9689	200.014
11.085	100.017	99.969	200.014
11.0875	100.017	99.969	200.014
11.09	100.017	99.9691	200.014
11.0925	100.017	99.9691	200.013
11.095	100.018	99.9692	200.013
11.0975	100.018	99.9692	200.013
11.1	100.018	99.9692	200.013
11.1025	100.018	99.9693	200.013
11.105	100.018	99.9693	200.013
11.1075	100.018	99.9694	200.013
11.11	100.018	99.9694	200.013
11.1125	100.018	99.9695	200.013
11.115	100.018	99.9695	200.013
11.1175	100.018	99.9696	200.012
11.12	100.018	99.9696	200.012
11.1225	100.018	99.9696	200.012
11.125	100.018	99.9697	200.012
11.1275	100.018	99.9697	200.012
11.13	100.018	99.9698	200.012
11.1325	100.018	99.9698	200.012
11.135	100.018	99.9699	200.012
11.1375	100.018	99.9699	200.012
11.14	100.018	99.97	200.012
11.1425	100.018	99.97	200.012
11.145	100.018	99.9701	200.012
11.1475	100.018	99.9701	200.011
11.15	100.019	99.9701	200.011
11.1525	100.019	99.9702	200.011
11.155	100.019	99.9702	200.011
11.1575	100.019	99.9703	200.011
11.16	100.019	99.9703	200.011
11.1625	100.019	99.9704	200.011
11.165	100.019	99.9704	200.011
11.1675	100.019	99.9705	200.011
11.17	100.019	99.9705	200.011
11.1725	100.019	99.9706	200.011
11.175	100.019	99.9706	200.01
11.1775	100.019	99.9707	200.01
11.18	100.019	99.9707	200.01
11.1825	100.019	99.9708	200.01
11.185	100.019	99.9708	200.01
11.1875	100.019	99.9709	200.01
11.19	100.019	99.9709	200.01
11.1925	100.019	99.9709	200.01
11.195	100.019	99.971	200.01
11.1975	100.019	99.971	200.01
11.2	100.019	99.9711	200.01
11.2025	100.019	99.9711	200.01
11.205	100.019	99.9712	200.009
11.2075	100.019	99.9712	200.009
11.21	100.019	99.9713	200.009
11.2125	100.019	99.9713	200.009
11.215	100.02	99.9714	200.009
11.2175	100.02	99.9714	200.009
11.22	100.02	99.9715	200.009
11.2225	100.02	99.9715	200.009
11.225	100.02	99.9716	200.009
11.2275	100.02	99.9716	200.009
11.23	100.02	99.9717	200.009
11.2325	100.02	99.9717	200.009
11.235	100.02	99.9718	200.008
11.2375	100.02	99.9718	200.008
11.24	100.02	99.9719	200.008
11.2425	100.02	99.9719	200.008
11.245	100.02	99.972	200.008
11.2475	100.02	99.972	200.008
11.25	100.02	99.9721	200.008
11.2525	100.02	99.9721	200.008
11.255	100.02	99.9722	200.008
11.2575	100.02	99.9722	200.008
11.26	100.02	99.9723	200.008
11.2625	100.02	99.9723	200.008
11.265	100.02	99.9724	200.007
11.2675	100.02	99.9724	200.007
11.27	100.02	99.9725	200.007
11.2725	100.02	99.9725	200.007
11.275	100.02	99.9726	200.007
11.2775	100.02	99.9726	200.007
11.28	100.02	99.9727	200.007
11.2825	100.02	99.9727	200.007
11.285	100.02	99.9728	200.007
11.2875	100.02	99.9728	200.007
11.29	100.02	99.9729	200.007
11.2925	100.02	99.9729	200.007
11.295	100.02	99.973	200.007
11.2975	100.02	99.973	200.006
11.3	100.021	99.9731	200.006
11.3025	100.021	99.9731	200.006
11.305	100.021	99.9732	200.006
11.3075	100.021	99.9732	200.006
11.31	100.021	99.9733	200.006
11.3125	100.021	99.9733	200.006
11.315	100.021	99.9734	200.006
11.3175	100.021	99.9734	200.006
11.32	100.021	99.9735	200.006
11.3225	100.021	99.9736	200.006
11.325	100.021	99.9736	200.006
11.3275	100.021	99.9737	200.006
11.33	100.021	99.9737	200.006
11.3325	100.021	99.9738	200.005
11.335	100.021	99.9738	200.005
11.3375	100.021	99.9739	200.005
11.34	100.021	99.9739	200.005
11.3425	100.021	99.974	200.005
11.345	100.021	99.974	200.005
11.3475	100.021	99.9741	200.005
11.35	100.021	99.9741	200.005
11.3525	100.021	99.9742	200.005
11.355	100.021	99.9742	200.005
11.3575	100.021	99.9743	200.005
11.36	100.021	99.9743	200.005
11.3625	100.021	99.9744	200.005
11.365	100.021	99.9744	200.005
11.3675	100.021	99.9745	200.004
11.37	100.021	99.9745	200.004
11.3725	100.021	99.9746	200.004
11.375	100.021	99.9746	200.004
11.3775	100.021	99.9747	200.004
11.38	100.021	99.9748	200.004
11.3825	100.021	99.9748	200.004
11.385	100.021	99.9749	200.004
11.3875	100.021	99.9749	200.004
11.39	100.021	99.975	200.004
11.3925	100.021	99.975	200.004
11.395	100.021	99.9751	200.004
11.3975	100.021	99.9751	200.004
11.4	100.021	99.9752	200.004
11.4025	100.021	99.9752	200.004
11.405	100.021	99.9753	200.003
11.4075	100.021	99.9753	200.003
11.41	100.021	99.9754	200.003
11.4125	100.021	99.9754	200.003
11.415	100.021	99.9755	200.003
11.4175	100.021	99.9756	200.003
11.42	100.021	99.9756	200.003
11.4225	100.021	99.9757	200.003
11.425	100.021	99.9757	200.003
11.4275	100.021	99.9758	200.003
11.43	100.021	99.9758	200.003
11.4325	100.021	99.9759	200.003
11.435	100.021	99.9759	200.003
11.4375	100.021	99.976	200.003
11.44	100.021	99.976	200.003
11.4425	100.021	99.9761	200.002
11.445	100.021	99.9761	200.002
11.4475	100.021	99.9762	200.002
11.45	100.021	99.9762	200.002
11.4525	100.021	99.9763	200.002
11.455	100.021	99.9764	200.002
11.4575	100.021	99.9764	200.002
11.46	100.022	99.9765	200.002
11.4625	100.022	99.9765	200.002
11.465	100.022	99.9766	200.002
11.4675	100.022	99.9766	200.002
11.47	100.022	99.9767	200.002
11.4725	100.022	99.9767	200.002
11.475	100.022	99.9768	200.002
11.4775	100.022	99.9768	200.002
11.48	100.022	99.9769	200.002
11.4825	100.022	99.9769	200.001
11.485	100.022	99.977	200.001
11.4875	100.022	99.9771	200.001
11.49	100.022	99.9771	200.001
11.4925	100.022	99.9772	200.001
11.495	100.022	99.9772	200.001
11.4975	100.022	99.9773	200.001
11.5	100.022	99.9773	200.001
11.5025	100.022	99.9774	200.001
11.505	100.022	99.9774	200.001
11.5075	100.022	99.9775	200.001
11.51	100.022	99.9775	200.001
11.5125	100.022	99.9776	200.001
11.515	100.022	99.9776	200.001
11.5175	100.022	99.9777	200.001
11.52	100.022	99.9778	200.001
11.5225	100.022	99.9778	200.001
11.525	100.022	99.9779	200.001
11.5275	100.022	99.9779	200
11.53	100.022	99.978	200
11.5325	100.022	99.978	200
11.535	100.022	99.9781	200
11.5375	100.022	99.9781	200
11.54	100.022	99.9782	200
11.5425	100.022	99.9782	200
11.545	100.022	99.9783	200
11.5475	100.022	99.9783	200
11.55	100.022	99.9784	200
11.5525	100.022	99.9785	200
11.555	100.022	99.9785	200
11.5575	100.022	99.9786	200
11.56	100.022	99.9786	200
11.5625	100.022	99.9787	200
11.565	100.022	99.9787	200
11.5675	100.022	99.9788	200
11.57	100.022	99.9788	200
11.5725	100.022	99.9789	199.999
11.575	100.022	99.9789	199.999
11.5775	100.022	99.979	199.999
11.58	100.022	99.9791	199.999
11.5825	100.022	99.9791	199.999
11.585	100.022	99.9792	199.999
11.5875	100.022	99.9792	199.999
11.59	100.022	99.9793	199.999
11.5925	100.022	99.9793	199.999
11.595	100.022	99.9794	199.999
11.5975	100.022	99.9794	199.999
11.6	100.022	99.9795	199.999
11.6025	100.022	99.9795	199.999
11.605	100.022	99.9796	199.999
11.6075	100.022	99.9796	199.999
11.61	100.022	99.9797	199.999
11.6125	100.022	99.9798	199.999
11.615	100.022	99.9798	199.999
11.6175	100.022	99.9799	199.999
11.62	100.022	99.9799	199.999
11.6225	100.022	99.98	199.998
11.625	100.022	99.98	199.998
11.6275	100.022	99.9801	199.998
11.63	100.022	99.9801	199.998
11.6325	100.022	99.9802	199.998
11.635	100.022	99.9802	199.998
11.6375	100.022	99.9803	199.998
11.64	100.022	99.9803	199.998
11.6425	100.021	99.9804	199.998
11.645	100.021	99.9805	199.998
11.6475	100.021	99.9805	199.998
11.65	100.021	99.9806	199.998
11.6525	100.021	99.9806	199.998
11.655	100.021	99.9807	199.998
11.6575	100.021	99.9807	199.998
11.66	100.021	99.9808	199.998
11.6625	100.021	99.9808	199.998
11.665	100.021	99.9809	199.998
11.6675	100.021	99.9809	199.998
11.67	100.021	99.981	199.998
11.6725	100.021	99.981	199.998
11.675	100.021	99.9811	199.998
11.6775	100.021	99.9812	199.997
11.68	100.021	99.9812	199.997
11.6825	100.021	99.9813	199.997
11.685	100.021	99.9813	199.997
11.6875	100.021	99.9814	199.997
11.69	100.021	99.9814	199.997
11.6925	100.021	99.9815	199.997
11.695	100.021	99.9815	199.997
11.6975	100.021	99.9816	199.997
11.7	100.021	99.9816	199.997
11.7025	100.021	99.9817	199.997
11.705	100.021	99.9817	199.997
11.7075	100.021	99.9818	199.997
11.71	100.021	99.9818	199.997
11.7125	100.021	99.9819	199.997
11.715	100.021	99.9819	199.997
11.7175	100.021	99.982	199.997
11.72	100.021	99.9821	199.997
11.7225	100.021	99.9821	199.997
11.725	100.021	99.9822	199.997
11.7275	100.021	99.9822	199.997
11.73	100.021	99.9823	199.997
11.7325	100.021	99.9823	199.997
11.735	100.021	99.9824	199.997
11.7375	100.021	99.9824	199.996
11.74	100.021	99.9825	199.996
11.7425	100.021	99.9825	199.996
11.745	100.021	99.9826	199.996
11.7475	100.021	99.9826	199.996
11.75	100.021	99.9827	199.996
11.7525	100.021	99.9827	199.996
11.755	100.021	99.9828	199.996
11.7575	100.021	99.9828	199.996
11.76	100.021	99.9829	199.996
11.7625	100.021	99.983	199.996
11.765	100.021	99.983	199.996
11.7675	100.021	99.9831	199.996
11.77	100.021	99.9831	199.996
11.7725	100.021	99.9832	199.996
11.775	100.021	99.9832	199.996
11.7775	100.021	99.9833	199.996
11.78	100.021	99.9833	199.996
11.7825	100.021	99.9834	199.996
11.785	100.021	99.9834	199.996
11.7875	100.021	99.9835	199.996
11.79	100.021	99.9835	199.996
11.7925	100.021	99.9836	199.996
11.795	100.021	99.9836	199.996
11.7975	100.021	99.9837	199.996
11.8	100.021	99.9837	199.996
11.8025	100.021	99.9838	199.995
11.805	100.021	99.9838	199.995
11.8075	100.021	99.9839	199.995
11.81	100.021	99.9839	199.995
11.8125	100.021	99.984	199.995
11.815	100.021	99.984	199.995
11.8175	100.021	99.9841	199.995
11.82	100.021	99.9841	199.995
11.8225	100.021	99.9842	199.995
11.825	100.021	99.9842	199.995
11.8275	100.021	99.9843	199.995
11.83	100.021	99.9844	199.995
11.8325	100.021	99.9844	199.995
11.835	100.02	99.9845	199.995
11.8375	100.02	99.9845	199.995
11.84	100.02	99.9846	199.995
11.8425	100.02	99.9846	199.995
11.845	100.02	99.9847	199.995
11.8475	100.02	99.9847	199.995
11.85	100.02	99.9848	199.995
11.8525	100.02	99.9848	199.995
11.855	100.02	99.9849	199.995
11.8575	100.02	99.9849	199.995
11.86	100.02	99.985	199.995
11.8625	100.02	99.985	199.995
11.865	100.02	99.9851	199.995
11.8675	100.02	99.9851	199.995
11.87	100.02	99.9852	199.995
11.8725	100.02	99.9852	199.995
11.875	100.02	99.9853	199.995
11.8775	100.02	99.9853	199.995
11.88	100.02	99.9854	199.994
11.8825	100.02	99.9854	199.994
11.885	100.02	99.9855	199.994
11.8875	100.02	99.9855	199.994
11.89	100.02	99.9856	199.994
11.8925	100.02	99.9856	199.994
11.895	100.02	99.9857	199.994
11.8975	100.02	99.9857	199.994
11.9	100.02	99.9858	199.994
11.9025	100.02	99.9858	199.994
11.905	100.02	99.9859	199.994
11.9075	100.02	99.9859	199.994
11.91	100.02	99.986	199.994
11.9125	100.02	99.986	199.994
11.915	100.02	99.9861	199.994
11.9175	100.02	99.9861	199.994
11.92	100.02	99.9862	199.994
11.9225	100.02	99.9862	199.994
11.925	100.02	99.9863	199.994
11.9275	100.02	99.9863	199.994
11.93	100.02	99.9864	199.994
11.9325	100.02	99.9864	199.994
11.935	100.02	99.9865	199.994
11.9375	100.02	99.9865	199.994
11.94	100.02	99.9866	199.994
11.9425	100.02	99.9866	199.994
11.945	100.02	99.9867	199.994
11.9475	100.02	99.9867	199.994
11.95	100.02	99.9868	199.994
11.9525	100.019	99.9868	199.994
11.955	100.019	99.9869	199.994
11.9575	100.019	99.9869	199.994
11.96	100.019	99.987	199.994
11.9625	100.019	99.987	199.994
11.965	100.019	99.987	199.994
11.9675	100.019	99.9871	199.994
11.97	100.019	99.9871	199.994
11.9725	100.019	99.9872	199.994
11.975	100.019	99.9872	199.993
11.9775	100.019	99.9873	199.993
11.98	100.019	99.9873	199.993
11.9825	100.019	99.9874	199.993
11.985	100.019	99.9874	199.993
11.9875	100.019	99.9875	199.993
11.99	100.019	99.9875	199.993
11.9925	100.019	99.9876	199.993
11.995	100.019	99.9876	199.993
11.9975	100.019	99.9877	199.993
12	100.019	99.9877	199.993
12.0025	100.019	99.9878	199.993
12.005	100.019	99.9878	199.993
12.0075	100.019	99.9879	199.993
12.01	100.019	99.9879	199.993
12.0125	100.019	99.988	199.993
12.015	100.019	99.988	199.993
12.0175	100.019	99.9881	199.993
12.02	100.019	99.9881	199.993
12.0225	100.019	99.9881	199.993
12.025	100.019	99.9882	199.993
12.0275	100.019	99.9882	199.993
12.03	100.019	99.9883	199.993
12.0325	100.019	99.9883	199.993
12.035	100.019	99.9884	199.993
12.0375	100.019	99.9884	199.993
12.04	100.019	99.9885	199.993
12.0425	100.019	99.9885	199.993
12.045	100.019	99.9886	199.993
12.0475	100.019	99.9886	199.993
12.05	100.019	99.9887	199.993
12.0525	100.018	99.9887	199.993
12.055	100.018	99.9888	199.993
12.0575	100.018	99.9888	199.993
12.06	100.018	99.9888	199.993
12.0625	100.018	99.9889	199.993
12.065	100.018	99.9889	199.993
12.0675	100.018	99.989	199.993
12.07	100.018	99.989	199.993
12.0725	100.018	99.9891	199.993
12.075	100.018	99.9891	199.993
12.0775	100.018	99.9892	199.993
12.08	100.018	99.9892	199.993
12.0825	100.018	99.9893	199.993
12.085	100.018	99.9893	199.993
12.0875	100.018	99.9893	199.993
12.09	100.018	99.9894	199.993
12.0925	100.018	99.9894	199.993
12.095	100.018	99.9895	199.993
12.0975	100.018	99.9895	199.992
12.1	100.018	99.9896	199.992
12.1025	100.018	99.9896	199.992
12.105	100.018	99.9897	199.992
12.1075	100.018	99.9897	199.992
12.11	100.018	99.9897	199.992
12.1125	100.018	99.9898	199.992
12.115	100.018	99.9898	199.992
12.1175	100.018	99.9899	199.992
12.12	100.018	99.9899	199.992
12.1225	100.018	99.99	199.992
12.125	100.018	99.99	199.992
12.1275	100.018	99.9901	199.992
12.13	100.018	99.9901	199.992
12.1325	100.018	99.9901	199.992
12.135	100.018	99.9902	199.992
12.1375	100.018	99.9902	199.992
12.14	100.017	99.9903	199.992
12.1425	100.017	99.9903	199.992
12.145	100.017	99.9904	199.992
12.1475	100.017	99.9904	199.992
12.15	100.017	99.9905	199.992
12.1525	100.017	99.9905	199.992
12.155	100.017	99.9905	199.992
12.1575	100.017	99.9906	199.992
12.16	100.017	99.9906	199.992
12.1625	100.017	99.9907	199.992
12.165	100.017	99.9907	199.992
12.1675	100.017	99.9908	199.992
12.17	100.017	99.9908	199.992
12.1725	100.017	99.9908	199.992
12.175	100.017	99.9909	199.992
12.1775	100.017	99.9909	199.992
12.18	100.017	99.991	199.992
12.1825	100.017	99.991	199.992
12.185	100.017	99.9911	199.992
12.1875	100.017	99.9911	199.992
12.19	100.017	99.9911	199.992
12.1925	100.017	99.9912	199.992
12.195	100.017	99.9912	199.992
12.1975	100.017	99.9913	199.992
12.2	100.017	99.9913	199.992
12.2025	100.017	99.9913	199.992
12.205	100.017	99.9914	199.992
12.2075	100.017	99.9914	199.992
12.21	100.017	99.9915	199.992
12.2125	100.017	99.9915	199.992
12.215	100.017	99.9916	199.992
12.2175	100.017	99.9916	199.992
12.22	100.017	99.9916	199.992
12.2225	100.017	99.9917	199.992
12.225	100.016	99.9917	199.992
12.2275	100.016	99.9918	199.992
12.23	100.016	99.9918	199.992
12.2325	100.016	99.9918	199.992
12.235	100.016	99.9919	199.992
12.2375	100.016	99.9919	199.992
12.24	100.016	99.992	199.992
12.2425	100.016	99.992	199.992
12.245	100.016	99.992	199.992
12.2475	100.016	99.9921	199.992
12.25	100.016	99.9921	199.992
12.2525	100.016	99.9922	199.992
12.255	100.016	99.9922	199.992
12.2575	100.016	99.9923	199.992
12.26	100.016	99.9923	199.992
12.2625	100.016	99.9923	199.992
12.265	100.016	99.9924	199.992
12.2675	100.016	99.9924	199.992
12.27	100.016	99.9925	199.992
12.2725	100.016	99.9925	199.992
12.275	100.016	99.9925	199.992
12.2775	100.016	99.9926	199.992
12.28	100.016	99.9926	199.992
12.2825	100.016	99.9926	199.992
12.285	100.016	99.9927	199.992
12.2875	100.016	99.9927	199.992
12.29	100.016	99.9928	199.992
12.2925	100.016	99.9928	199.992
12.295	100.016	99.9928	199.992
12.2975	100.016	99.9929	199.992
12.3	100.016	99.9929	199.992
12.3025	100.016	99.993	199.992
12.305	100.015	99.993	199.992
12.3075	100.015	99.993	199.992
12.31	100.015	99.9931	199.992
12.3125	100.015	99.9931	199.992
12.315	100.015	99.9932	199.991
12.3175	100.015	99.9932	199.991
12.32	100.015	99.9932	199.991
12.3225	100.015	99.9933	199.991
12.325	100.015	99.9933	199.991
12.3275	100.015	99.9933	199.991
12.33	100.015	99.9934	199.991
12.3325	100.015	99.9934	199.991
12.335	100.015	99.9935	199.991
12.3375	100.015	99.9935	199.991
12.34	100.015	99.9935	199.991
12.3425	100.015	99.9936	199.991
12.345	100.015	99.9936	199.991
12.3475	100.015	99.9936	199.991
12.35	100.015	99.9937	199.991
12.3525	100.015	99.9937	199.991
12.355	100.015	99.9938	199.991
12.3575	100.015	99.9938	199.991
12.36	100.015	99.9938	199.991
12.3625	100.015	99.9939	199.991
12.365	100.015	99.9939	199.991
12.3675	100.015	99.9939	199.991
12.37	100.015	99.994	199.991
12.3725	100.015	99.994	199.991
12.375	100.015	99.9941	199.991
12.3775	100.015	99.9941	199.991
12.38	100.015	99.9941	199.991
12.3825	100.014	99.9942	199.991
12.385	100.014	99.9942	199.991
12.3875	100.014	99.9942	199.991
12.39	100.014	99.9943	199.991
12.3925	100.014	99.9943	199.991
12.395	100.014	99.9943	199.991
12.3975	100.014	99.9944	199.991
12.4	100.014	99.9944	199.991
12.4025	100.014	99.9944	199.991
12.405	100.014	99.9945	199.991
12.4075	100.014	99.9945	199.991
12.41	100.014	99.9946	199.991
12.4125	100.014	99.9946	199.991
12.415	100.014	99.9946	199.991
12.4175	100.014	99.9947	199.991
12.42	100.014	99.9947	199.991
12.4225	100.014	99.9947	199.991
12.425	100.014	99.9948	199.991
12.4275	100.014	99.9948	199.991
12.43	100.014	99.9948	199.991
12.4325	100.014	99.9949	199.991
12.435	100.014	99.9949	199.991
12.4375	100.014	99.9949	199.991
12.44	100.014	99.995	199.991
12.4425	100.014	99.995	199.991
12.445	100.014	99.995	199.991
12.4475	100.014	99.9951	199.991
12.45	100.014	99.9951	199.991
12.4525	100.014	99.9951	199.991
12.455	100.014	99.9952	199.991
12.4575	100.014	99.9952	199.991
12.46	100.013	99.9952	199.991
12.4625	100.013	99.9953	199.991
12.465	100.013	99.9953	199.991
12.4675	100.013	99.9953	199.991
12.47	100.013	99.9954	199.991
12.4725	100.013	99.9954	199.991
12.475	100.013	99.9954	199.991
12.4775	100.013	99.9955	199.991
12.48	100.013	99.9955	199.991
12.4825	100.013	99.9955	199.991
12.485	100.013	99.9956	199.991
12.4875	100.013	99.9956	199.991
12.49	100.013	99.9956	199.991
12.4925	100.013	99.9957	199.991
12.495	100.013	99.9957	199.991
12.4975	100.013	99.9957	199.991
12.5	100.013	99.9958	199.991
12.5025	100.013	99.9958	199.991
12.505	100.013	99.9958	199.991
12.5075	100.013	99.9959	199.991
12.51	100.013	99.9959	199.991
12.5125	100.013	99.9959	199.991
12.515	100.013	99.996	199.991
12.5175	100.013	99.996	199.991
12.52	100.013	99.996	199.991
12.5225	100.013	99.9961	199.991
12.525	100.013	99.9961	199.991
12.5275	100.013	99.9961	199.991
12.53	100.013	99.9962	199.991
12.5325	100.013	99.9962	199.991
12.535	100.012	99.9962	199.991
12.5375	100.012	99.9962	199.991
12.54	100.012	99.9963	199.991
12.5425	100.012	99.9963	199.991
12.545	100.012	99.9963	199.991
12.5475	100.012	99.9964	199.991
12.55	100.012	99.9964	199.991
12.5525	100.012	99.9964	199.991
12.555	100.012	99.9965	199.991
12.5575	100.012	99.9965	199.991
12.56	100.012	99.9965	199.991
12.5625	100.012	99.9966	199.991
12.565	100.012	99.9966	199.991
12.5675	100.012	99.9966	199.991
12.57	100.012	99.9966	199.991
12.5725	100.012	99.9967	199.991
12.575	100.012	99.9967	199.991
12.5775	100.012	99.9967	199.991
12.58	100.012	99.9968	199.991
12.5825	100.012	99.9968	199.991
12.585	100.012	99.9968	199.991
12.5875	100.012	99.9969	199.991
12.59	100.012	99.9969	199.991
12.5925	100.012	99.9969	199.991
12.595	100.012	99.9969	199.991
12.5975	100.012	99.997	199.991
12.6	100.012	99.997	199.991
12.6025	100.012	99.997	199.991
12.605	100.012	99.9971	199.991
12.6075	100.012	99.9971	199.991
12.61	100.012	99.9971	199.991
12.6125	100.011	99.9971	199.991
12.615	100.011	99.9972	199.991
12.6175	100.011	99.9972	199.991
12.62	100.011	99.9972	199.991
12.6225	100.011	99.9973	199.991
12.625	100.011	99.9973	199.991
12.6275	100.011	99.9973	199.991
12.63	100.011	99.9973	199.991
12.6325	100.011	99.9974	199.991
12.635	100.011	99.9974	199.991
12.6375	100.011	99.9974	199.991
12.64	100.011	99.9975	199.991
12.6425	100.011	99.9975	199.991
12.645	100.011	99.9975	199.991
12.6475	100.011	99.9975	199.991
12.65	100.011	99.9976	199.991
12.6525	100.011	99.9976	199.991
12.655	100.011	99.9976	199.991
12.6575	100.011	99.9977	199.991
12.66	100.011	99.9977	199.991
12.6625	100.011	99.9977	199.991
12.665	100.011	99.9977	199.991
12.6675	100.011	99.9978	199.991
12.67	100.011	99.9978	199.991
12.6725	100.011	99.9978	199.991
12.675	100.011	99.9978	199.991
12.6775	100.011	99.9979	199.991
12.68	100.011	99.9979	199.991
12.6825	100.011	99.9979	199.992
12.685	100.011	99.9979	199.992
12.6875	100.011	99.998	199.992
12.69	100.01	99.998	199.992
12.6925	100.01	99.998	199.992
12.695	100.01	99.998	199.992
12.6975	100.01	99.9981	199.992
12.7	100.01	99.9981	199.992
12.7025	100.01	99.9981	199.992
12.705	100.01	99.9982	199.992
12.7075	100.01	99.9982	199.992
12.71	100.01	99.9982	199.992
12.7125	100.01	99.9982	199.992
12.715	100.01	99.9983	199.992
12.7175	100.01	99.9983	199.992
12.72	100.01	99.9983	199.992
12.7225	100.01	99.9983	199.992
12.725	100.01	99.9984	199.992
12.7275	100.01	99.9984	199.992
12.73	100.01	99.9984	199.992
12.7325	100.01	99.9984	199.992
12.735	100.01	99.9985	199.992
12.7375	100.01	99.9985	199.992
12.74	100.01	99.9985	199.992
12.7425	100.01	99.9985	199.992
12.745	100.01	99.9986	199.992
12.7475	100.01	99.9986	199.992
12.75	100.01	99.9986	199.992
12.7525	100.01	99.9986	199.992
12.755	100.01	99.9987	199.992
12.7575	100.01	99.9987	199.992
12.76	100.01	99.9987	199.992
12.7625	100.01	99.9987	199.992
12.765	100.01	99.9987	199.992
12.7675	100.01	99.9988	199.992
12.77	100.009	99.9988	199.992
12.7725	100.009	99.9988	199.992
12.775	100.009	99.9988	199.992
12.7775	100.009	99.9989	199.992
12.78	100.009	99.9989	199.992
12.7825	100.009	99.9989	199.992
12.785	100.009	99.9989	199.992
12.7875	100.009	99.999	199.992
12.79	100.009	99.999	199.992
12.7925	100.009	99.999	199.992
12.795	100.009	99.999	199.992
12.7975	100.009	99.9991	199.992
12.8	100.009	99.9991	199.992
12.8025	100.009	99.9991	199.992
12.805	100.009	99.9991	199.992
12.8075	100.009	99.9991	199.992
12.81	100.009	99.9992	199.992
12.8125	100.009	99.9992	199.992
12.815	100.009	99.9992	199.992
12.8175	100.009	99.9992	199.992
12.82	100.009	99.9993	199.992
12.8225	100.009	99.9993	199.992
12.825	100.009	99.9993	199.992
12.8275	100.009	99.9993	199.992
12.83	100.009	99.9993	199.992
12.8325	100.009	99.9994	199.992
12.835	100.009	99.9994	199.992
12.8375	100.009	99.9994	199.992
12.84	100.009	99.9994	199.992
12.8425	100.009	99.9995	199.992
12.845	100.009	99.9995	199.992
12.8475	100.009	99.9995	199.992
12.85	100.009	99.9995	199.992
12.8525	100.008	99.9995	199.992
12.855	100.008	99.9996	199.992
12.8575	100.008	99.9996	199.992
12.86	100.008	99.9996	199.992
12.8625	100.008	99.9996	199.992
12.865	100.008	99.9996	199.992
12.8675	100.008	99.9997	199.992
12.87	100.008	99.9997	199.992
12.8725	100.008	99.9997	199.992
12.875	100.008	99.9997	199.992
12.8775	100.008	99.9997	199.992
12.88	100.008	99.9998	199.992
12.8825	100.008	99.9998	199.992
12.885	100.008	99.9998	199.992
12.8875	100.008	99.9998	199.992
12.89	100.008	99.9998	199.992
12.8925	100.008	99.9999	199.992
12.895	100.008	99.9999	199.992
12.8975	100.008	99.9999	199.992
12.9	100.008	99.9999	199.992
12.9025	100.008	99.9999	199.992
12.905	100.008	100	199.992
12.9075	100.008	100	199.992
12.91	100.008	100	199.992
12.9125	100.008	100	199.992
12.915	100.008	100	199.992
12.9175	100.008	100	199.992
12.92	100.008	100	199.992
12.9225	100.008	100	199.992
12.925	100.008	100	199.992
12.9275	100.008	100	199.992
12.93	100.008	100	199.992
12.9325	100.008	100	199.992
12.935	100.007	100	199.992
12.9375	100.007	100	199.992
12.94	100.007	100	199.992
12.9425	100.007	100	199.992
12.945	100.007	100	199.992
12.9475	100.007	100	199.992
12.95	100.007	100	199.992
12.9525	100.007	100	199.992
12.955	100.007	100	199.992
12.9575	100.007	100	199.992
12.96	100.007	100	199.992
12.9625	100.007	100	199.992
12.965	100.007	100	199.992
12.9675	100.007	100	199.992
12.97	100.007	100	199.992
12.9725	100.007	100	199.992
12.975	100.007	100	199.992
12.9775	100.007	100.001	199.992
12.98	100.007	100.001	199.992
12.9825	100.007	100.001	199.993
12.985	100.007	100.001	199.993
12.9875	100.007	100.001	199.993
12.99	100.007	100.001	199.993
12.9925	100.007	100.001	199.993
12.995	100.007	100.001	199.993
12.9975	100.007	100.001	199.993
13	100.007	100.001	199.993
13.0025	100.007	100.001	199.993
13.005	100.007	100.001	199.993
13.0075	100.007	100.001	199.993
13.01	100.007	100.001	199.993
13.0125	100.007	100.001	199.993
13.015	100.007	100.001	199.993
13.0175	100.007	100.001	199.993
13.02	100.007	100.001	199.993
13.0225	100.007	100.001	199.993
13.025	100.006	100.001	199.993
13.0275	100.006	100.001	199.993
13.03	100.006	100.001	199.993
13.0325	100.006	100.001	199.993
13.035	100.006	100.001	199.993
13.0375	100.006	100.001	199.993
13.04	100.006	100.001	199.993
13.0425	100.006	100.001	199.993
13.045	100.006	100.001	199.993
13.0475	100.006	100.001	199.993
13.05	100.006	100.001	199.993
13.0525	100.006	100.001	199.993
13.055	100.006	100.001	199.993
13.0575	100.006	100.001	199.993
13.06	100.006	100.001	199.993
13.0625	100.006	100.001	199.993
13.065	100.006	100.001	199.993
13.0675	100.006	100.001	199.993
13.07	100.006	100.001	199.993
13.0725	100.006	100.001	199.993
13.075	100.006	100.001	199.993
13.0775	100.006	100.001	199.993
13.08	100.006	100.001	199.993
13.0825	100.006	100.001	199.993
13.085	100.006	100.001	199.993
13.0875	100.006	100.001	199.993
13.09	100.006	100.001	199.993
13.0925	100.006	100.001	199.993
13.095	100.006	100.001	199.993
13.0975	100.006	100.001	199.993
13.1	100.006	100.001	199.993
13.1025	100.006	100.001	199.993
13.105	100.006	100.001	199.993
13.1075	100.006	100.001	199.993
13.11	100.006	100.001	199.993
13.1125	100.006	100.001	199.993
13.115	100.006	100.001	199.993
13.1175	100.006	100.001	199.993
13.12	100.005	100.001	199.993
13.1225	100.005	100.001	199.993
13.125	100.005	100.001	199.993
13.1275	100.005	100.001	199.993
13.13	100.005	100.001	199.993
13.1325	100.005	100.001	199.993
13.135	100.005	100.001	199.993
13.1375	100.005	100.001	199.993
13.14	100.005	100.001	199.993
13.1425	100.005	100.002	199.993
13.145	100.005	100.002	199.993
13.1475	100.005	100.002	199.993
13.15	100.005	100.002	199.993
13.1525	100.005	100.002	199.993
13.155	100.005	100.002	199.993
13.1575	100.005	100.002	199.993
13.16	100.005	100.002	199.993
13.1625	100.005	100.002	199.993
13.165	100.005	100.002	199.993
13.1675	100.005	100.002	199.993
13.17	100.005	100.002	199.993
13.1725	100.005	100.002	199.993
13.175	100.005	100.002	199.993
13.1775	100.005	100.002	199.993
13.18	100.005	100.002	199.993
13.1825	100.005	100.002	199.993
13.185	100.005	100.002	199.993
13.1875	100.005	100.002	199.993
13.19	100.005	100.002	199.993
13.1925	100.005	100.002	199.993
13.195	100.005	100.002	199.994
13.1975	100.005	100.002	199.994
13.2	100.005	100.002	199.994
13.2025	100.005	100.002	199.994
13.205	100.005	100.002	199.994
13.2075	100.005	100.002	199.994
13.21	100.005	100.002	199.994
13.2125	100.005	100.002	199.994
13.215	100.005	100.002	199.994
13.2175	100.005	100.002	199.994
13.22	100.004	100.002	199.994
13.2225	100.004	100.002	199.994
13.225	100.004	100.002	199.994
13.2275	100.004	100.002	199.994
13.23	100.004	100.002	199.994
13.2325	100.004	100.002	199.994
13.235	100.004	100.002	199.994
13.2375	100.004	100.002	199.994
13.24	100.004	100.002	199.994
13.2425	100.004	100.002	199.994
13.245	100.004	100.002	199.994
13.2475	100.004	100.002	199.994
13.25	100.004	100.002	199.994
13.2525	100.004	100.002	199.994
13.255	100.004	100.002	199.994
13.2575	100.004	100.002	199.994
13.26	100.004	100.002	199.994
13.2625	100.004	100.002	199.994
13.265	100.004	100.002	199.994
13.2675	100.004	100.002	199.994
13.27	100.004	100.002	199.994
13.2725	100.004	100.002	199.994
13.275	100.004	100.002	199.994
13.2775	100.004	100.002	199.994
13.28	100.004	100.002	199.994
13.2825	100.004	100.002	199.994
13.285	100.004	100.002	199.994
13.2875	100.004	100.002	199.994
13.29	100.004	100.002	199.994
13.2925	100.004	100.002	199.994
13.295	100.004	100.002	199.994
13.2975	100.004	100.002	199.994
13.3	100.004	100.002	199.994
13.3025	100.004	100.002	199.994
13.305	100.004	100.002	199.994
13.3075	100.004	100.002	199.994
13.31	100.004	100.002	199.994
13.3125	100.004	100.002	199.994
13.315	100.004	100.002	199.994
13.3175	100.004	100.002	199.994
13.32	100.004	100.002	199.994
13.3225	100.004	100.002	199.994
13.325	100.004	100.002	199.994
13.3275	100.003	100.002	199.994
13.33	100.003	100.002	199.994
13.3325	100.003	100.002	199.994
13.335	100.003	100.002	199.994
13.3375	100.003	100.002	199.994
13.34	100.003	100.002	199.994
13.3425	100.003	100.002	199.994
13.345	100.003	100.002	199.994
13.3475	100.003	100.002	199.994
13.35	100.003	100.002	199.994
13.3525	100.003	100.002	199.994
13.355	100.003	100.002	199.994
13.3575	100.003	100.002	199.994
13.36	100.003	100.002	199.994
13.3625	100.003	100.002	199.994
13.365	100.003	100.002	199.994
13.3675	100.003	100.002	199.994
13.37	100.003	100.002	199.994
13.3725	100.003	100.002	199.994
13.375	100.003	100.002	199.994
13.3775	100.003	100.002	199.994
13.38	100.003	100.002	199.994
13.3825	100.003	100.002	199.994
13.385	100.003	100.003	199.994
13.3875	100.003	100.003	199.994
13.39	100.003	100.003	199.995
13.3925	100.003	100.003	199.995
13.395	100.003	100.003	199.995
13.3975	100.003	100.003	199.995
13.4	100.003	100.003	199.995
13.4025	100.003	100.003	199.995
13.405	100.003	100.003	199.995
13.4075	100.003	100.003	199.995
13.41	100.003	100.003	199.995
13.4125	100.003	100.003	199.995
13.415	100.003	100.003	199.995
13.4175	100.003	100.003	199.995
13.42	100.003	100.003	199.995
13.4225	100.003	100.003	199.995
13.425	100.003	100.003	199.995
13.4275	100.003	100.003	199.995
13.43	100.003	100.003	199.995
13.4325	100.003	100.003	199.995
13.435	100.003	100.003	199.995
13.4375	100.003	100.003	199.995
13.44	100.003	100.003	199.995
13.4425	100.003	100.003	199.995
13.445	100.003	100.003	199.995
13.4475	100.003	100.003	199.995
13.45	100.002	100.003	199.995
13.4525	100.002	100.003	199.995
13.455	100.002	100.003	199.995
13.4575	100.002	100.003	199.995
13.46	100.002	100.003	199.995
13.4625	100.002	100.003	199.995
13.465	100.002	100.003	199.995
13.4675	100.002	100.003	199.995
13.47	100.002	100.003	199.995
13.4725	100.002	100.003	199.995
13.475	100.002	100.003	199.995
13.4775	100.002	100.003	199.995
13.48	100.002	100.003	199.995
13.4825	100.002	100.003	199.995
13.485	100.002	100.003	199.995
13.4875	100.002	100.003	199.995
13.49	100.002	100.003	199.995
13.4925	100.002	100.003	199.995
13.495	100.002	100.003	199.995
13.4975	100.002	100.003	199.995
13.5	100.002	100.003	199.995
13.5025	100.002	100.003	199.995
13.505	100.002	100.003	199.995
13.5075	100.002	100.003	199.995
13.51	100.002	100.003	199.995
13.5125	100.002	100.003	199.995
13.515	100.002	100.003	199.995
13.5175	100.002	100.003	199.995
13.52	100.002	100.003	199.995
13.5225	100.002	100.003	199.995
13.525	100.002	100.003	199.995
13.5275	100.002	100.003	199.995
13.53	100.002	100.003	199.995
13.5325	100.002	100.003	199.995
13.535	100.002	100.003	199.995
13.5375	100.002	100.003	199.995
13.54	100.002	100.003	199.995
13.5425	100.002	100.003	199.995
13.545	100.002	100.003	199.995
13.5475	100.002	100.003	199.995
13.55	100.002	100.003	199.995
13.5525	100.002	100.003	199.995
13.555	100.002	100.003	199.995
13.5575	100.002	100.003	199.995
13.56	100.002	100.003	199.995
13.5625	100.002	100.003	199.995
13.565	100.002	100.003	199.995
13.5675	100.002	100.003	199.995
13.57	100.002	100.003	199.995
13.5725	100.002	100.003	199.995
13.575	100.002	100.003	199.995
13.5775	100.002	100.003	199.995
13.58	100.002	100.003	199.996
13.5825	100.002	100.003	199.996
13.585	100.002	100.003	199.996
13.5875	100.001	100.003	199.996
13.59	100.001	100.003	199.996
13.5925	100.001	100.003	199.996
13.595	100.001	100.003	199.996
13.5975	100.001	100.003	199.996
13.6	100.001	100.003	199.996
13.6025	100.001	100.003	199.996
13.605	100.001	100.003	199.996
13.6075	100.001	100.003	199.996
13.61	100.001	100.003	199.996
13.6125	100.001	100.003	199.996
13.615	100.001	100.003	199.996
13.6175	100.001	100.003	199.996
13.62	100.001	100.003	199.996
13.6225	100.001	100.003	199.996
13.625	100.001	100.003	199.996
13.6275	100.001	100.003	199.996
13.63	100.001	100.003	199.996
13.6325	100.001	100.003	199.996
13.635	100.001	100.003	199.996
13.6375	100.001	100.003	199.996
13.64	100.001	100.003	199.996
13.6425	100.001	100.003	199.996
13.645	100.001	100.003	199.996
13.6475	100.001	100.003	199.996
13.65	100.001	100.003	199.996
13.6525	100.001	100.003	199.996
13.655	100.001	100.003	199.996
13.6575	100.001	100.003	199.996
13.66	100.001	100.003	199.996
13.6625	100.001	100.003	199.996
13.665	100.001	100.003	199.996
13.6675	100.001	100.003	199.996
13.67	100.001	100.003	199.996
13.6725	100.001	100.003	199.996
13.675	100.001	100.003	199.996
13.6775	100.001	100.003	199.996
13.68	100.001	100.003	199.996
13.6825	100.001	100.003	199.996
13.685	100.001	100.003	199.996
13.6875	100.001	100.003	199.996
13.69	100.001	100.003	199.996
13.6925	100.001	100.003	199.996
13.695	100.001	100.003	199.996
13.6975	100.001	100.003	199.996
13.7	100.001	100.003	199.996
13.7025	100.001	100.003	199.996
13.705	100.001	100.003	199.996
13.7075	100.001	100.003	199.996
13.71	100.001	100.003	199.996
13.7125	100.001	100.003	199.996
13.715	100.001	100.003	199.996
13.7175	100.001	100.003	199.996
13.72	100.001	100.003	199.996
13.7225	100.001	100.003	199.996
13.725	100.001	100.003	199.996
13.7275	100.001	100.003	199.996
13.73	100.001	100.003	199.996
13.7325	100.001	100.003	199.996
13.735	100.001	100.003	199.996
13.7375	100.001	100.003	199.996
13.74	100.001	100.003	199.996
13.7425	100.001	100.003	199.996
13.745	100.001	100.003	199.996
13.7475	100.001	100.003	199.996
13.75	100.001	100.003	199.996
13.7525	100	100.003	199.996
13.755	100	100.003	199.996
13.7575	100	100.003	199.996
13.76	100	100.003	199.996
13.7625	100	100.003	199.996
13.765	100	100.003	199.996
13.7675	100	100.003	199.996
13.77	100	100.003	199.996
13.7725	100	100.003	199.996
13.775	100	100.003	199.996
13.7775	100	100.003	199.997
13.78	100	100.003	199.997
13.7825	100	100.003	199.997
13.785	100	100.003	199.997
13.7875	100	100.003	199.997
13.79	100	100.003	199.997
13.7925	100	100.003	199.997
13.795	100	100.003	199.997
13.7975	100	100.003	199.997
13.8	100	100.003	199.997
13.8025	100	100.003	199.997
13.805	100	100.003	199.997
13.8075	100	100.003	199.997
13.81	100	100.003	199.997
13.8125	100	100.003	199.997
13.815	100	100.003	199.997
13.8175	100	100.003	199.997
13.82	100	100.003	199.997
13.8225	100	100.003	199.997
13.825	100	100.003	199.997
13.8275	100	100.003	199.997
13.83	100	100.003	199.997
13.8325	100	100.003	199.997
13.835	100	100.003	199.997
13.8375	100	100.003	199.997
13.84	100	100.003	199.997
13.8425	100	100.003	199.997
13.845	100	100.003	199.997
13.8475	100	100.003	199.997
13.85	100	100.003	199.997
13.8525	100	100.003	199.997
13.855	100	100.003	199.997
13.8575	100	100.003	199.997
13.86	100	100.003	199.997
13.8625	99.9999	100.003	199.997
13.865	99.9999	100.003	199.997
13.8675	99.9999	100.003	199.997
13.87	99.9999	100.003	199.997
13.8725	99.9999	100.003	199.997
13.875	99.9999	100.003	199.997
13.8775	99.9999	100.003	199.997
13.88	99.9999	100.003	199.997
13.8825	99.9999	100.003	199.997
13.885	99.9998	100.003	199.997
13.8875	99.9998	100.003	199.997
13.89	99.9998	100.003	199.997
13.8925	99.9998	100.003	199.997
13.895	99.9998	100.003	199.997
13.8975	99.9998	100.003	199.997
13.9	99.9998	100.003	199.997
13.9025	99.9998	100.003	199.997
13.905	99.9998	100.003	199.997
13.9075	99.9997	100.003	199.997
13.91	99.9997	100.003	199.997
13.9125	99.9997	100.003	199.997
13.915	99.9997	100.003	199.997
13.9175	99.9997	100.003	199.997
13.92	99.9997	100.003	199.997
13.9225	99.9997	100.003	199.997
13.925	99.9997	100.003	199.997
13.9275	99.9997	100.003	199.997
13.93	99.9997	100.003	199.997
13.9325	99.9996	100.003	199.997
13.935	99.9996	100.003	199.997
13.9375	99.9996	100.003	199.997
13.94	99.9996	100.003	199.997
13.9425	99.9996	100.003	199.997
13.945	99.9996	100.003	199.997
13.9475	99.9996	100.003	199.997
13.95	99.9996	100.003	199.997
13.9525	99.9996	100.003	199.997
13.955	99.9995	100.003	199.997
13.9575	99.9995	100.003	199.997
13.96	99.9995	100.003	199.997
13.9625	99.9995	100.003	199.997
13.965	99.9995	100.003	199.997
13.9675	99.9995	100.003	199.997
13.97	99.9995	100.003	199.997
13.9725	99.9995	100.003	199.997
13.975	99.9995	100.003	199.997
13.9775	99.9995	100.003	199.997
13.98	99.9995	100.003	199.997
13.9825	99.9994	100.003	199.997
13.985	99.9994	100.003	199.997
13.9875	99.9994	100.003	199.997
13.99	99.9994	100.003	199.997
13.9925	99.9994	100.003	199.997
13.995	99.9994	100.003	199.998
13.9975	99.9994	100.003	199.998
14	99.9994	100.003	199.998
14.0025	99.9994	100.003	199.998
14.005	99.9994	100.003	199.998
14.0075	99.9993	100.003	199.998
14.01	99.9993	100.003	199.998
14.0125	99.9993	100.003	199.998
14.015	99.9993	100.003	199.998
14.0175	99.9993	100.003	199.998
14.02	99.9993	100.003	199.998
14.0225	99.9993	100.003	199.998
14.025	99.9993	100.003	199.998
14.0275	99.9993	100.003	199.998
14.03	99.9993	100.003	199.998
14.0325	99.9993	100.003	199.998
14.035	99.9992	100.003	199.998
14.0375	99.9992	100.003	199.998
14.04	99.9992	100.003	199.998
14.0425	99.9992	100.003	199.998
14.045	99.9992	100.003	199.998
14.0475	99.9992	100.003	199.998
14.05	99.9992	100.003	199.998
14.0525	99.9992	100.003	199.998
14.055	99.9992	100.003	199.998
14.0575	99.9992	100.003	199.998
14.06	99.9992	100.003	199.998
14.0625	99.9992	100.003	199.998
14.065	99.9991	100.003	199.998
14.0675	99.9991	100.003	199.998
14.07	99.9991	100.003	199.998
14.0725	99.9991	100.003	199.998
14.075	99.9991	100.003	199.998
14.0775	99.9991	100.003	199.998
14.08	99.9991	100.003	199.998
14.0825	99.9991	100.003	199.998
14.085	99.9991	100.003	199.998
14.0875	99.9991	100.003	199.998
14.09	99.9991	100.003	199.998
14.0925	99.9991	100.003	199.998
14.095	99.9991	100.003	199.998
14.0975	99.999	100.003	199.998
14.1	99.999	100.003	199.998
14.1025	99.999	100.003	199.998
14.105	99.999	100.003	199.998
14.1075	99.999	100.003	199.998
14.11	99.999	100.003	199.998
14.1125	99.999	100.003	199.998
14.115	99.999	100.003	199.998
14.1175	99.999	100.003	199.998
14.12	99.999	100.003	199.998
14.1225	99.999	100.003	199.998
14.125	99.999	100.003	199.998
14.1275	99.999	100.003	199.998
14.13	99.9989	100.003	199.998
14.1325	99.9989	100.003	199.998
14.135	99.9989	100.003	199.998
14.1375	99.9989	100.003	199.998
14.14	99.9989	100.003	199.998
14.1425	99.9989	100.003	199.998
14.145	99.9989	100.003	199.998
14.1475	99.9989	100.003	199.998
14.15	99.9989	100.003	199.998
14.1525	99.9989	100.003	199.998
14.155	99.9989	100.003	199.998
14.1575	99.9989	100.003	199.998
14.16	99.9989	100.003	199.998
14.1625	99.9989	100.003	199.998
14.165	99.9988	100.003	199.998
14.1675	99.9988	100.003	199.998
14.17	99.9988	100.003	199.998
14.1725	99.9988	100.003	199.998
14.175	99.9988	100.003	199.998
14.1775	99.9988	100.003	199.998
14.18	99.9988	100.003	199.998
14.1825	99.9988	100.003	199.998
14.185	99.9988	100.003	199.998
14.1875	99.9988	100.003	199.998
14.19	99.9988	100.003	199.998
14.1925	99.9988	100.003	199.998
14.195	99.9988	100.003	199.998
14.1975	99.9988	100.003	199.998
14.2	99.9988	100.003	199.998
14.2025	99.9988	100.003	199.998
14.205	99.9987	100.003	199.998
14.2075	99.9987	100.003	199.998
14.21	99.9987	100.003	199.998
14.2125	99.9987	100.003	199.998
14.215	99.9987	100.003	199.998
14.2175	99.9987	100.003	199.998
14.22	99.9987	100.003	199.998
14.2225	99.9987	100.003	199.998
14.225	99.9987	100.003	199.998
14.2275	99.9987	100.003	199.998
14.23	99.9987	100.003	199.998
14.2325	99.9987	100.003	199.998
14.235	99.9987	100.003	199.998
14.2375	99.9987	100.003	199.998
14.24	99.9987	100.003	199.998
14.2425	99.9987	100.003	199.998
14.245	99.9987	100.003	199.999
14.2475	99.9986	100.003	199.999
14.25	99.9986	100.003	199.999
14.2525	99.9986	100.003	199.999
14.255	99.9986	100.003	199.999
14.2575	99.9986	100.003	199.999
14.26	99.9986	100.003	199.999
14.2625	99.9986	100.003	199.999
14.265	99.9986	100.003	199.999
14.2675	99.9986	100.003	199.999
14.27	99.9986	100.003	199.999
14.2725	99.9986	100.003	199.999
14.275	99.9986	100.003	199.999
14.2775	99.9986	100.003	199.999
14.28	99.9986	100.003	199.999
14.2825	99.9986	100.003	199.999
14.285	99.9986	100.003	199.999
14.2875	99.9986	100.003	199.999
14.29	99.9986	100.003	199.999
14.2925	99.9986	100.003	199.999
14.295	99.9985	100.003	199.999
14.2975	99.9985	100.003	199.999
14.3	99.9985	100.003	199.999
14.3025	99.9985	100.003	199.999
14.305	99.9985	100.003	199.999
14.3075	99.9985	100.003	199.999
14.31	99.9985	100.003	199.999
14.3125	99.9985	100.003	199.999
14.315	99.9985	100.003	199.999
14.3175	99.9985	100.003	199.999
14.32	99.9985	100.003	199.999
14.3225	99.9985	100.003	199.999
14.325	99.9985	100.003	199.999
14.3275	99.9985	100.003	199.999
14.33	99.9985	100.003	199.999
14.3325	99.9985	100.003	199.999
14.335	99.9985	100.003	199.999
14.3375	99.9985	100.003	199.999
14.34	99.9985	100.003	199.999
14.3425	99.9985	100.003	199.999
14.345	99.9985	100.003	199.999
14.3475	99.9984	100.003	199.999
14.35	99.9984	100.003	199.999
14.3525	99.9984	100.003	199.999
14.355	99.9984	100.003	199.999
14.3575	99.9984	100.003	199.999
14.36	99.9984	100.003	199.999
14.3625	99.9984	100.003	199.999
14.365	99.9984	100.003	199.999
14.3675	99.9984	100.003	199.999
14.37	99.9984	100.003	199.999
14.3725	99.9984	100.003	199.999
14.375	99.9984	100.003	199.999
14.3775	99.9984	100.003	199.999
14.38	99.9984	100.003	199.999
14.3825	99.9984	100.003	199.999
14.385	99.9984	100.003	199.999
14.3875	99.9984	100.003	199.999
14.39	99.9984	100.003	199.999
14.3925	99.9984	100.003	199.999
14.395	99.9984	100.003	199.999
14.3975	99.9984	100.003	199.999
14.4	99.9984	100.003	199.999
14.4025	99.9984	100.003	199.999
14.405	99.9984	100.003	199.999
14.4075	99.9984	100.003	199.999
14.41	99.9984	100.003	199.999
14.4125	99.9983	100.003	199.999
14.415	99.9983	100.003	199.999
14.4175	99.9983	100.003	199.999
14.42	99.9983	100.003	199.999
14.4225	99.9983	100.003	199.999
14.425	99.9983	100.003	199.999
14.4275	99.9983	100.003	199.999
14.43	99.9983	100.003	199.999
14.4325	99.9983	100.003	199.999
14.435	99.9983	100.003	199.999
14.4375	99.9983	100.003	199.999
14.44	99.9983	100.003	199.999
14.4425	99.9983	100.003	199.999
14.445	99.9983	100.003	199.999
14.4475	99.9983	100.003	199.999
14.45	99.9983	100.003	199.999
14.4525	99.9983	100.003	199.999
14.455	99.9983	100.003	199.999
14.4575	99.9983	100.003	199.999
14.46	99.9983	100.003	199.999
14.4625	99.9983	100.003	199.999
14.465	99.9983	100.003	199.999
14.4675	99.9983	100.002	199.999
14.47	99.9983	100.002	199.999
14.4725	99.9983	100.002	199.999
14.475	99.9983	100.002	199.999
14.4775	99.9983	100.002	199.999
14.48	99.9983	100.002	199.999
14.4825	99.9983	100.002	199.999
14.485	99.9983	100.002	199.999
14.4875	99.9983	100.002	199.999
14.49	99.9983	100.002	199.999
14.4925	99.9982	100.002	199.999
14.495	99.9982	100.002	199.999
14.4975	99.9982	100.002	199.999
14.5	99.9982	100.002	199.999
14.5025	99.9982	100.002	199.999
14.505	99.9982	100.002	199.999
14.5075	99.9982	100.002	199.999
14.51	99.9982	100.002	199.999
14.5125	99.9982	100.002	199.999
14.515	99.9982	100.002	199.999
14.5175	99.9982	100.002	199.999
14.52	99.9982	100.002	199.999
14.5225	99.9982	100.002	199.999
14.525	99.9982	100.002	199.999
14.5275	99.9982	100.002	199.999
14.53	99.9982	100.002	199.999
14.5325	99.9982	100.002	199.999
14.535	99.9982	100.002	199.999
14.5375	99.9982	100.002	199.999
14.54	99.9982	100.002	199.999
14.5425	99.9982	100.002	199.999
14.545	99.9982	100.002	199.999
14.5475	99.9982	100.002	199.999
14.55	99.9982	100.002	199.999
14.5525	99.9982	100.002	199.999
14.555	99.9982	100.002	199.999
14.5575	99.9982	100.002	199.999
14.56	99.9982	100.002	199.999
14.5625	99.9982	100.002	199.999
14.565	99.9982	100.002	199.999
14.5675	99.9982	100.002	199.999
14.57	99.9982	100.002	200
14.5725	99.9982	100.002	200
14.575	99.9982	100.002	200
14.5775	99.9982	100.002	200
14.58	99.9982	100.002	200
14.5825	99.9982	100.002	200
14.585	99.9982	100.002	200
14.5875	99.9982	100.002	200
14.59	99.9982	100.002	200
14.5925	99.9982	100.002	200
14.595	99.9982	100.002	200
14.5975	99.9982	100.002	200
14.6	99.9982	100.002	200
14.6025	99.9982	100.002	200
14.605	99.9982	100.002	200
14.6075	99.9982	100.002	200
14.61	99.9982	100.002	200
14.6125	99.9982	100.002	200
14.615	99.9982	100.002	200
14.6175	99.9981	100.002	200
14.62	99.9981	100.002	200
14.6225	99.9981	100.002	200
14.625	99.9981	100.002	200
14.6275	99.9981	100.002	200
14.63	99.9981	100.002	200
14.6325	99.9981	100.002	200
14.635	99.9981	100.002	200
14.6375	99.9981	100.002	200
14.64	99.9981	100.002	200
14.6425	99.9981	100.002	200
14.645	99.9981	100.002	200
14.6475	99.9981	100.002	200
14.65	99.9981	100.002	200
14.6525	99.9981	100.002	200
14.655	99.9981	100.002	200
14.6575	99.9981	100.002	200
14.66	99.9981	100.002	200
14.6625	99.9981	100.002	200
14.665	99.9981	100.002	200
14.6675	99.9981	100.002	200
14.67	99.9981	100.002	200
14.6725	99.9981	100.002	200
14.675	99.9981	100.002	200
14.6775	99.9981	100.002	200
14.68	99.9981	100.002	200
14.6825	99.9981	100.002	200
14.685	99.9981	100.002	200
14.6875	99.9981	100.002	200
14.69	99.9981	100.002	200
14.6925	99.9981	100.002	200
14.695	99.9981	100.002	200
14.6975	99.9981	100.002	200
14.7	99.9981	100.002	200
14.7025	99.9981	100.002	200
14.705	99.9981	100.002	200
14.7075	99.9981	100.002	200
14.71	99.9981	100.002	200
14.7125	99.9981	100.002	200
14.715	99.9981	100.002	200
14.7175	99.9981	100.002	200
14.72	99.9981	100.002	200
14.7225	99.9981	100.002	200
14.725	99.9981	100.002	200
14.7275	99.9981	100.002	200
14.73	99.9981	100.002	200
14.7325	99.9981	100.002	200
14.735	99.9981	100.002	200
14.7375	99.9981	100.002	200
14.74	99.9981	100.002	200
14.7425	99.9981	100.002	200
14.745	99.9981	100.002	200
14.7475	99.9981	100.002	200
14.75	99.9981	100.002	200
14.7525	99.9981	100.002	200
14.755	99.9981	100.002	200
14.7575	99.9981	100.002	200
14.76	99.9981	100.002	200
14.7625	99.9981	100.002	200
14.765	99.9981	100.002	200
14.7675	99.9981	100.002	200
14.77	99.9981	100.002	200
14.7725	99.9981	100.002	200
14.775	99.9981	100.002	200
14.7775	99.9981	100.002	200
14.78	99.9981	100.002	200
14.7825	99.9981	100.002	200
14.785	99.9981	100.002	200
14.7875	99.9981	100.002	200
14.79	99.9981	100.002	200
14.7925	99.9981	100.002	200
14.795	99.9981	100.002	200
14.7975	99.9981	100.002	200
14.8	99.9981	100.002	200
14.8025	99.9981	100.002	200
14.805	99.9981	100.002	200
14.8075	99.9981	100.002	200
14.81	99.9981	100.002	200
14.8125	99.9981	100.002	200
14.815	99.9981	100.002	200
14.8175	99.9981	100.002	200
14.82	99.9981	100.002	200
14.8225	99.9981	100.002	200
14.825	99.9981	100.002	200
14.8275	99.9981	100.002	200
14.83	99.9981	100.002	200
14.8325	99.9981	100.002	200
14.835	99.9981	100.002	200
14.8375	99.9981	100.002	200
14.84	99.9981	100.002	200
14.8425	99.9981	100.002	200
14.845	99.9981	100.002	200
14.8475	99.9981	100.002	200
14.85	99.9981	100.002	200
14.8525	99.9981	100.002	200
14.855	99.9981	100.002	200
14.8575	99.9981	100.002	200
14.86	99.9981	100.002	200
14.8625	99.9981	100.002	200
14.865	99.9981	100.002	200
14.8675	99.9981	100.002	200
14.87	99.9981	100.002	200
14.8725	99.9981	100.002	200
14.875	99.9981	100.002	200
14.8775	99.9981	100.002	200
14.88	99.9981	100.002	200
14.8825	99.9981	100.002	200
14.885	99.9981	100.002	200
14.8875	99.9981	100.002	200
14.89	99.9981	100.002	200
14.8925	99.9981	100.002	200
14.895	99.9981	100.002	200
14.8975	99.9981	100.002	200
14.9	99.9981	100.002	200
14.9025	99.9981	100.002	200
14.905	99.9981	100.002	200
14.9075	99.9981	100.002	200
14.91	99.9981	100.002	200
14.9125	99.9981	100.002	200
14.915	99.9981	100.002	200
14.9175	99.9981	100.002	200
14.92	99.9981	100.002	200
14.9225	99.9981	100.002	200
14.925	99.9981	100.002	200
14.9275	99.9981	100.002	200
14.93	99.9981	100.002	200
14.9325	99.9981	100.002	200
14.935	99.9981	100.002	200
14.9375	99.9981	100.002	200
14.94	99.9981	100.002	200
14.9425	99.9981	100.002	200
14.945	99.9981	100.002	200
14.9475	99.9981	100.002	200
14.95	99.9981	100.002	200
14.9525	99.9981	100.002	200
14.955	99.9981	100.002	200
14.9575	99.9981	100.002	200
14.96	99.9981	100.002	200
14.9625	99.9981	100.002	200
14.965	99.9981	100.002	200
14.9675	99.9981	100.002	200
14.97	99.9981	100.002	200
14.9725	99.9981	100.002	200
14.975	99.9981	100.002	200
14.9775	99.9981	100.002	200
14.98	99.9981	100.002	200
14.9825	99.9981	100.002	200
14.985	99.9981	100.002	200
14.9875	99.9982	100.002	200
14.99	99.9982	100.002	200
14.9925	99.9982	100.002	200
14.995	99.9982	100.002	200
14.9975	99.9982	100.002	200
15	99.9982	100.002	200
