# N = 400
# (S0, I0, R0) = (5, 390, 5)
# (a, b, c) = (4, 1, 0.5)
# time, S, I, R
0	5	390	5
0.0025	4.95837	389.075	5.96699
0.005	4.91846	388.151	6.93046
0.0075	4.88024	387.229	7.89042
0.01	4.8437	386.309	8.84688
0.0125	4.8088	385.391	9.79985
0.015	4.77553	384.475	10.7493
0.0175	4.74387	383.561	11.6953
0.02	4.71379	382.648	12.6379
0.0225	4.68528	381.738	13.577
0.025	4.65831	380.829	14.5126
0.0275	4.63286	379.922	15.4449
0.03	4.60891	379.017	16.3736
0.0325	4.58645	378.115	17.299
0.035	4.56545	377.214	18.221
0.0375	4.54589	376.315	19.1395
0.04	4.52776	375.418	20.0547
0.0425	4.51104	374.522	20.9665
0.045	4.4957	373.629	21.8749
0.0475	4.48174	372.738	22.7799
0.05	4.46913	371.849	23.6816
0.0525	4.45785	370.962	24.58
0.055	4.44789	370.077	25.475
0.0575	4.43924	369.194	26.3667
0.06	4.43186	368.313	27.255
0.0625	4.42576	367.434	28.1401
0.065	4.42091	366.557	29.0219
0.0675	4.41729	365.682	29.9003
0.07	4.41489	364.81	30.7755
0.0725	4.4137	363.939	31.6474
0.075	4.41369	363.07	32.5161
0.0775	4.41486	362.204	33.3815
0.08	4.41719	361.339	34.2437
0.0825	4.42067	360.477	35.1026
0.085	4.42527	359.616	35.9583
0.0875	4.43099	358.758	36.8108
0.09	4.43782	357.902	37.6601
0.0925	4.44573	357.048	38.5061
0.095	4.45471	356.196	39.349
0.0975	4.46476	355.346	40.1887
0.1	4.47586	354.499	41.0253
0.1025	4.48799	353.653	41.8587
0.105	4.50115	352.81	42.6889
0.1075	4.51531	351.969	43.516
0.11	4.53047	351.13	44.34
0.1125	4.54662	350.293	45.1608
0.115	4.56374	349.458	45.9785
0.1175	4.58183	348.625	46.7931
0.12	4.60086	347.794	47.6047
0.1225	4.62083	346.966	48.4131
0.125	4.64173	346.14	49.2185
0.1275	4.66354	345.316	50.0208
0.13	4.68626	344.494	50.82
0.1325	4.70987	343.674	51.6162
0.135	4.73437	342.856	52.4093
0.1375	4.75974	342.041	53.1994
0.14	4.78597	341.228	53.9865
0.1425	4.81305	340.416	54.7706
0.145	4.84097	339.607	55.5517
0.1475	4.86973	338.801	56.3298
0.15	4.8993	337.996	57.1049
0.1525	4.92969	337.193	57.877
0.155	4.96088	336.393	58.6461
0.1575	4.99287	335.595	59.4123
0.16	5.02564	334.799	60.1756
0.1625	5.05918	334.005	60.9359
0.165	5.09349	333.213	61.6933
0.1675	5.12855	332.424	62.4477
0.17	5.16436	331.636	63.1993
0.1725	5.20092	330.851	63.9479
0.175	5.2382	330.068	64.6937
0.1775	5.2762	329.287	65.4365
0.18	5.31492	328.509	66.1765
0.1825	5.35434	327.732	66.9136
0.185	5.39446	326.958	67.6479
0.1875	5.43528	326.185	68.3793
0.19	5.47677	325.415	69.1079
0.1925	5.51893	324.647	69.8336
0.195	5.56177	323.882	70.5565
0.1975	5.60526	323.118	71.2766
0.2	5.6494	322.357	71.9939
0.2025	5.69419	321.597	72.7084
0.205	5.73961	320.84	73.4201
0.2075	5.78566	320.085	74.1291
0.21	5.83234	319.332	74.8352
0.2125	5.87963	318.582	75.5386
0.215	5.92753	317.833	76.2393
0.2175	5.97603	317.087	76.9372
0.22	6.02513	316.342	77.6324
0.2225	6.07481	315.6	78.3248
0.225	6.12508	314.86	79.0146
0.2275	6.17592	314.122	79.7016
0.23	6.22733	313.387	80.3859
0.2325	6.27931	312.653	81.0676
0.235	6.33184	311.922	81.7465
0.2375	6.38492	311.192	82.4228
0.24	6.43855	310.465	83.0964
0.2425	6.49272	309.74	83.7674
0.245	6.54742	309.017	84.4357
0.2475	6.60264	308.296	85.1014
0.25	6.65839	307.577	85.7644
0.2525	6.71466	306.86	86.4249
0.255	6.77143	306.146	87.0827
0.2575	6.82871	305.433	87.7379
0.26	6.88649	304.723	88.3905
0.2625	6.94476	304.015	89.0405
0.265	7.00353	303.309	89.688
0.2675	7.06277	302.604	90.3328
0.27	7.1225	301.902	90.9752
0.2725	7.1827	301.202	91.6149
0.275	7.24336	300.505	92.2521
0.2775	7.30449	299.809	92.8868
0.28	7.36608	299.115	93.519
0.2825	7.42813	298.423	94.1486
0.285	7.49062	297.734	94.7757
0.2875	7.55356	297.046	95.4003
0.29	7.61693	296.361	96.0224
0.2925	7.68075	295.677	96.6421
0.295	7.74499	294.996	97.2592
0.2975	7.80966	294.316	97.8739
0.3	7.87475	293.639	98.4861
0.3025	7.94026	292.964	99.0959
0.305	8.00618	292.291	99.7032
0.3075	8.07251	291.619	100.308
0.31	8.13924	290.95	100.911
0.3125	8.20638	290.283	101.511
0.315	8.27391	289.618	102.108
0.3175	8.34184	288.955	102.703
0.32	8.41015	288.294	103.296
0.3225	8.47885	287.635	103.887
0.325	8.54793	286.977	104.475
0.3275	8.61738	286.322	105.06
0.33	8.68721	285.669	105.644
0.3325	8.75741	285.018	106.225
0.335	8.82797	284.369	106.803
0.3375	8.8989	283.722	107.379
0.34	8.97018	283.077	107.953
0.3425	9.04182	282.433	108.525
0.345	9.11381	281.792	109.094
0.3475	9.18614	281.153	109.661
0.35	9.25882	280.515	110.226
0.3525	9.33185	279.88	110.788
0.355	9.40521	279.247	111.348
0.3575	9.4789	278.615	111.906
0.36	9.55292	277.986	112.461
0.3625	9.62727	277.358	113.015
0.365	9.70195	276.732	113.566
0.3675	9.77695	276.109	114.114
0.37	9.85226	275.487	114.661
0.3725	9.92789	274.867	115.205
0.375	10.0038	274.249	115.747
0.3775	10.0801	273.633	116.287
0.38	10.1566	273.019	116.825
0.3825	10.2335	272.406	117.36
0.385	10.3107	271.796	117.893
0.3875	10.3881	271.187	118.424
0.39	10.4659	270.581	118.953
0.3925	10.5439	269.976	119.48
0.395	10.6222	269.373	120.004
0.3975	10.7008	268.772	120.527
0.4	10.7797	268.173	121.047
0.4025	10.8589	267.576	121.565
0.405	10.9384	266.981	122.081
0.4075	11.0181	266.387	122.595
0.41	11.0981	265.795	123.106
0.4125	11.1784	265.206	123.616
0.415	11.2589	264.618	124.123
0.4175	11.3397	264.032	124.629
0.42	11.4208	263.447	125.132
0.4225	11.5021	262.865	125.633
0.425	11.5837	262.284	126.132
0.4275	11.6655	261.705	126.629
0.43	11.7476	261.128	127.124
0.4325	11.83	260.553	127.617
0.435	11.9126	259.98	128.108
0.4375	11.9954	259.408	128.597
0.44	12.0785	258.838	129.083
0.4425	12.1618	258.27	129.568
0.445	12.2453	257.704	130.051
0.4475	12.3291	257.139	130.532
0.45	12.4131	256.577	131.01
0.4525	12.4974	256.016	131.487
0.455	12.5819	255.457	131.962
0.4575	12.6666	254.899	132.434
0.46	12.7515	254.343	132.905
0.4625	12.8367	253.79	133.374
0.465	12.9221	253.237	133.841
0.4675	13.0077	252.687	134.305
0.47	13.0935	252.138	134.768
0.4725	13.1795	251.591	135.229
0.475	13.2658	251.046	135.688
0.4775	13.3522	250.503	136.145
0.48	13.4389	249.961	136.6
0.4825	13.5258	249.421	137.053
0.485	13.6129	248.882	137.505
0.4875	13.7001	248.346	137.954
0.49	13.7876	247.811	138.402
0.4925	13.8753	247.278	138.847
0.495	13.9632	246.746	139.291
0.4975	14.0513	246.216	139.733
0.5	14.1395	245.688	140.173
0.5025	14.228	245.161	140.611
0.505	14.3167	244.636	141.047
0.5075	14.4055	244.113	141.481
0.51	14.4945	243.592	141.914
0.5125	14.5838	243.072	142.344
0.515	14.6732	242.554	142.773
0.5175	14.7627	242.037	143.2
0.52	14.8525	241.522	143.625
0.5225	14.9424	241.009	144.049
0.525	15.0326	240.497	144.47
0.5275	15.1229	239.987	144.89
0.53	15.2133	239.479	145.308
0.5325	15.304	238.972	145.724
0.535	15.3948	238.467	146.139
0.5375	15.4858	237.963	146.551
0.54	15.5769	237.461	146.962
0.5425	15.6682	236.961	147.371
0.545	15.7597	236.462	147.778
0.5475	15.8513	235.965	148.184
0.55	15.9431	235.469	148.588
0.5525	16.0351	234.975	148.99
0.555	16.1272	234.483	149.39
0.5575	16.2195	233.992	149.789
0.56	16.3119	233.502	150.186
0.5625	16.4045	233.015	150.581
0.565	16.4973	232.528	150.974
0.5675	16.5901	232.044	151.366
0.57	16.6832	231.561	151.756
0.5725	16.7764	231.079	152.144
0.575	16.8697	230.599	152.531
0.5775	16.9632	230.121	152.916
0.58	17.0568	229.644	153.299
0.5825	17.1506	229.168	153.681
0.585	17.2445	228.694	154.061
0.5875	17.3386	228.222	154.439
0.59	17.4328	227.751	154.816
0.5925	17.5271	227.282	155.191
0.595	17.6216	226.814	155.564
0.5975	17.7162	226.348	155.936
0.6	17.8109	225.883	156.306
0.6025	17.9058	225.419	156.675
0.605	18.0008	224.957	157.042
0.6075	18.0959	224.497	157.407
0.61	18.1912	224.038	157.771
0.6125	18.2866	223.581	158.133
0.615	18.3821	223.125	158.493
0.6175	18.4777	222.67	158.852
0.62	18.5735	222.217	159.21
0.6225	18.6694	221.765	159.565
0.625	18.7654	221.315	159.919
0.6275	18.8615	220.866	160.272
0.63	18.9578	220.419	160.623
0.6325	19.0541	219.973	160.973
0.635	19.1506	219.529	161.321
0.6375	19.2472	219.086	161.667
0.64	19.344	218.644	162.012
0.6425	19.4408	218.204	162.355
0.645	19.5377	217.765	162.697
0.6475	19.6348	217.328	163.037
0.65	19.732	216.892	163.376
0.6525	19.8293	216.457	163.713
0.655	19.9267	216.024	164.049
0.6575	20.0242	215.593	164.383
0.66	20.1218	215.162	164.716
0.6625	20.2195	214.733	165.047
0.665	20.3173	214.306	165.377
0.6675	20.4152	213.879	165.705
0.67	20.5132	213.455	166.032
0.6725	20.6114	213.031	166.358
0.675	20.7096	212.609	166.681
0.6775	20.8079	212.188	167.004
0.68	20.9063	211.769	167.325
0.6825	21.0049	211.351	167.644
0.685	21.1035	210.934	167.963
0.6875	21.2022	210.519	168.279
0.69	21.301	210.105	168.594
0.6925	21.3999	209.692	168.908
0.695	21.4989	209.28	169.221
0.6975	21.598	208.87	169.532
0.7	21.6972	208.462	169.841
0.7025	21.7964	208.054	170.149
0.705	21.8958	207.648	170.456
0.7075	21.9953	207.243	170.761
0.71	22.0948	206.84	171.065
0.7125	22.1944	206.438	171.368
0.715	22.2941	206.037	171.669
0.7175	22.3939	205.637	171.969
0.72	22.4938	205.239	172.267
0.7225	22.5938	204.842	172.564
0.725	22.6938	204.446	172.86
0.7275	22.7939	204.052	173.155
0.73	22.8941	203.658	173.448
0.7325	22.9944	203.266	173.739
0.735	23.0948	202.876	174.03
0.7375	23.1952	202.486	174.319
0.74	23.2957	202.098	174.606
0.7425	23.3963	201.711	174.892
0.745	23.497	201.325	175.177
0.7475	23.5978	200.941	175.461
0.75	23.6986	200.558	175.744
0.7525	23.7995	200.176	176.025
0.755	23.9004	199.795	176.304
0.7575	24.0015	199.416	176.583
0.76	24.1026	199.037	176.86
0.7625	24.2038	198.66	177.136
0.765	24.305	198.285	177.41
0.7675	24.4063	197.91	177.684
0.77	24.5077	197.537	177.956
0.7725	24.6091	197.164	178.227
0.775	24.7107	196.793	178.496
0.7775	24.8122	196.423	178.764
0.78	24.9139	196.055	179.031
0.7825	25.0156	195.687	179.297
0.785	25.1174	195.321	179.561
0.7875	25.2192	194.956	179.825
0.79	25.3211	194.592	180.087
0.7925	25.4231	194.23	180.347
0.795	25.5251	193.868	180.607
0.7975	25.6271	193.508	180.865
0.8	25.7293	193.148	181.122
0.8025	25.8315	192.79	181.378
0.805	25.9337	192.433	181.633
0.8075	26.036	192.078	181.886
0.81	26.1384	191.723	182.138
0.8125	26.2408	191.37	182.39
0.815	26.3433	191.017	182.639
0.8175	26.4458	190.666	182.888
0.82	26.5484	190.316	183.135
0.8225	26.651	189.967	183.382
0.825	26.7537	189.619	183.627
0.8275	26.8564	189.273	183.871
0.83	26.9592	188.927	184.114
0.8325	27.0621	188.583	184.355
0.835	27.1649	188.239	184.596
0.8375	27.2679	187.897	184.835
0.84	27.3708	187.556	185.073
0.8425	27.4739	187.216	185.31
0.845	27.5769	186.877	185.546
0.8475	27.6801	186.539	185.78
0.85	27.7832	186.203	186.014
0.8525	27.8864	185.867	186.246
0.855	27.9897	185.533	186.478
0.8575	28.093	185.199	186.708
0.86	28.1963	184.867	186.937
0.8625	28.2997	184.535	187.165
0.865	28.4031	184.205	187.392
0.8675	28.5066	183.876	187.617
0.87	28.6101	183.548	187.842
0.8725	28.7136	183.221	188.066
0.875	28.8172	182.895	188.288
0.8775	28.9208	182.57	188.509
0.88	29.0245	182.246	188.73
0.8825	29.1282	181.923	188.949
0.885	29.2319	181.601	189.167
0.8875	29.3356	181.281	189.384
0.89	29.4394	180.961	189.6
0.8925	29.5433	180.642	189.815
0.895	29.6471	180.324	190.028
0.8975	29.751	180.008	190.241
0.9	29.855	179.692	190.453
0.9025	29.9589	179.378	190.664
0.905	30.0629	179.064	190.873
0.9075	30.167	178.751	191.082
0.91	30.271	178.44	191.289
0.9125	30.3751	178.129	191.496
0.915	30.4792	177.82	191.701
0.9175	30.5834	177.511	191.905
0.92	30.6875	177.204	192.109
0.9225	30.7917	176.897	192.311
0.925	30.896	176.591	192.513
0.9275	31.0002	176.287	192.713
0.93	31.1045	175.983	192.912
0.9325	31.2088	175.681	193.111
0.935	31.3131	175.379	193.308
0.9375	31.4175	175.078	193.504
0.94	31.5219	174.779	193.699
0.9425	31.6263	174.48	193.894
0.945	31.7307	174.182	194.087
0.9475	31.8352	173.885	194.28
0.95	31.9396	173.59	194.471
0.9525	32.0441	173.295	194.661
0.955	32.1486	173.001	194.851
0.9575	32.2532	172.708	195.039
0.96	32.3577	172.416	195.227
0.9625	32.4623	172.125	195.413
0.965	32.5669	171.834	195.599
0.9675	32.6715	171.545	195.783
0.97	32.7761	171.257	195.967
0.9725	32.8807	170.97	196.15
0.975	32.9854	170.683	196.331
0.9775	33.0901	170.398	196.512
0.98	33.1947	170.113	196.692
0.9825	33.2994	169.829	196.871
0.985	33.4042	169.547	197.049
0.9875	33.5089	169.265	197.226
0.99	33.6136	168.984	197.402
0.9925	33.7184	168.704	197.578
0.995	33.8232	168.425	197.752
0.9975	33.9279	168.147	197.925
1	34.0327	167.869	198.098
1.0025	34.1375	167.593	198.269
1.005	34.2423	167.317	198.44
1.0075	34.3472	167.043	198.61
1.01	34.452	166.769	198.779
1.0125	34.5568	166.496	198.947
1.015	34.6617	166.224	199.114
1.0175	34.7665	165.953	199.28
1.02	34.8714	165.683	199.446
1.0225	34.9763	165.414	199.61
1.025	35.0811	165.145	199.774
1.0275	35.186	164.878	199.936
1.03	35.2909	164.611	200.098
1.0325	35.3958	164.345	200.259
1.035	35.5007	164.08	200.419
1.0375	35.6056	163.816	200.578
1.04	35.7105	163.553	200.737
1.0425	35.8154	163.29	200.894
1.045	35.9203	163.029	201.051
1.0475	36.0253	162.768	201.207
1.05	36.1302	162.508	201.362
1.0525	36.2351	162.249	201.516
1.055	36.34	161.991	201.669
1.0575	36.4449	161.733	201.822
1.06	36.5498	161.477	201.973
1.0625	36.6548	161.221	202.124
1.065	36.7597	160.966	202.274
1.0675	36.8646	160.712	202.423
1.07	36.9695	160.459	202.572
1.0725	37.0744	160.206	202.719
1.075	37.1793	159.955	202.866
1.0775	37.2842	159.704	203.012
1.08	37.3891	159.454	203.157
1.0825	37.494	159.205	203.301
1.085	37.5989	158.956	203.445
1.0875	37.7038	158.709	203.587
1.09	37.8087	158.462	203.729
1.0925	37.9136	158.216	203.87
1.095	38.0184	157.971	204.011
1.0975	38.1233	157.726	204.15
1.1	38.2282	157.483	204.289
1.1025	38.333	157.24	204.427
1.105	38.4379	156.998	204.564
1.1075	38.5427	156.757	204.701
1.11	38.6475	156.516	204.836
1.1125	38.7523	156.277	204.971
1.115	38.8571	156.038	205.105
1.1175	38.9619	155.8	205.238
1.12	39.0667	155.562	205.371
1.1225	39.1715	155.326	205.503
1.125	39.2763	155.09	205.634
1.1275	39.381	154.855	205.764
1.13	39.4858	154.62	205.894
1.1325	39.5905	154.387	206.023
1.135	39.6952	154.154	206.151
1.1375	39.7999	153.922	206.278
1.14	39.9046	153.691	206.405
1.1425	40.0093	153.46	206.53
1.145	40.1139	153.231	206.656
1.1475	40.2186	153.002	206.78
1.15	40.3232	152.773	206.904
1.1525	40.4278	152.546	207.027
1.155	40.5324	152.319	207.149
1.1575	40.637	152.093	207.27
1.16	40.7416	151.867	207.391
1.1625	40.8461	151.643	207.511
1.165	40.9506	151.419	207.63
1.1675	41.0552	151.196	207.749
1.17	41.1596	150.973	207.867
1.1725	41.2641	150.752	207.984
1.175	41.3686	150.531	208.101
1.1775	41.473	150.31	208.217
1.18	41.5774	150.091	208.332
1.1825	41.6818	149.872	208.446
1.185	41.7862	149.654	208.56
1.1875	41.8906	149.436	208.673
1.19	41.9949	149.22	208.786
1.1925	42.0992	149.003	208.897
1.195	42.2035	148.788	209.008
1.1975	42.3077	148.573	209.119
1.2	42.412	148.36	209.228
1.2025	42.5162	148.146	209.337
1.205	42.6204	147.934	209.446
1.2075	42.7246	147.722	209.554
1.21	42.8287	147.511	209.661
1.2125	42.9328	147.3	209.767
1.215	43.0369	147.09	209.873
1.2175	43.141	146.881	209.978
1.22	43.245	146.673	210.082
1.2225	43.3491	146.465	210.186
1.225	43.4531	146.258	210.289
1.2275	43.557	146.052	210.391
1.23	43.661	145.846	210.493
1.2325	43.7649	145.641	210.594
1.235	43.8687	145.436	210.695
1.2375	43.9726	145.233	210.795
1.24	44.0764	145.029	210.894
1.2425	44.1802	144.827	210.993
1.245	44.284	144.625	211.091
1.2475	44.3877	144.424	211.188
1.25	44.4914	144.224	211.285
1.2525	44.5951	144.024	211.381
1.255	44.6987	143.825	211.477
1.2575	44.8023	143.626	211.572
1.26	44.9059	143.428	211.666
1.2625	45.0095	143.231	211.76
1.265	45.113	143.034	211.853
1.2675	45.2165	142.838	211.945
1.27	45.3199	142.643	212.037
1.2725	45.4233	142.449	212.128
1.275	45.5267	142.254	212.219
1.2775	45.6301	142.061	212.309
1.28	45.7334	141.868	212.398
1.2825	45.8366	141.676	212.487
1.285	45.9399	141.485	212.576
1.2875	46.0431	141.294	212.663
1.29	46.1463	141.103	212.75
1.2925	46.2494	140.914	212.837
1.295	46.3525	140.725	212.923
1.2975	46.4556	140.536	213.008
1.3	46.5586	140.348	213.093
1.3025	46.6616	140.161	213.177
1.305	46.7645	139.975	213.261
1.3075	46.8674	139.789	213.344
1.31	46.9703	139.603	213.426
1.3125	47.0731	139.418	213.508
1.315	47.1759	139.234	213.59
1.3175	47.2787	139.051	213.671
1.32	47.3814	138.868	213.751
1.3225	47.4841	138.685	213.831
1.325	47.5867	138.504	213.91
1.3275	47.6893	138.322	213.988
1.33	47.7919	138.142	214.066
1.3325	47.8944	137.962	214.144
1.335	47.9968	137.782	214.221
1.3375	48.0993	137.604	214.297
1.34	48.2017	137.425	214.373
1.3425	48.304	137.248	214.448
1.345	48.4063	137.071	214.523
1.3475	48.5085	136.894	214.597
1.35	48.6108	136.718	214.671
1.3525	48.7129	136.543	214.744
1.355	48.8151	136.368	214.817
1.3575	48.9171	136.194	214.889
1.36	49.0192	136.02	214.961
1.3625	49.1212	135.847	215.032
1.365	49.2231	135.675	215.102
1.3675	49.325	135.503	215.172
1.37	49.4268	135.331	215.242
1.3725	49.5286	135.16	215.311
1.375	49.6304	134.99	215.379
1.3775	49.7321	134.82	215.447
1.38	49.8338	134.651	215.515
1.3825	49.9354	134.483	215.582
1.385	50.037	134.315	215.648
1.3875	50.1385	134.147	215.714
1.39	50.24	133.98	215.78
1.3925	50.3414	133.814	215.845
1.395	50.4427	133.648	215.909
1.3975	50.5441	133.483	215.973
1.4	50.6453	133.318	216.037
1.4025	50.7466	133.154	216.1
1.405	50.8477	132.99	216.162
1.4075	50.9489	132.827	216.224
1.41	51.0499	132.664	216.286
1.4125	51.1509	132.502	216.347
1.415	51.2519	132.341	216.408
1.4175	51.3528	132.18	216.468
1.42	51.4537	132.019	216.527
1.4225	51.5545	131.859	216.586
1.425	51.6553	131.7	216.645
1.4275	51.756	131.541	216.703
1.43	51.8566	131.382	216.761
1.4325	51.9572	131.224	216.818
1.435	52.0578	131.067	216.875
1.4375	52.1583	130.91	216.931
1.44	52.2587	130.754	216.987
1.4425	52.3591	130.598	217.043
1.445	52.4594	130.443	217.098
1.4475	52.5597	130.288	217.152
1.45	52.6599	130.134	217.206
1.4525	52.76	129.98	217.26
1.455	52.8601	129.827	217.313
1.4575	52.9602	129.674	217.366
1.46	53.0602	129.522	217.418
1.4625	53.1601	129.37	217.47
1.465	53.26	129.219	217.521
1.4675	53.3598	129.068	217.572
1.47	53.4596	128.918	217.623
1.4725	53.5593	128.768	217.673
1.475	53.6589	128.619	217.722
1.4775	53.7585	128.47	217.771
1.48	53.858	128.322	217.82
1.4825	53.9575	128.174	217.868
1.485	54.0569	128.027	217.916
1.4875	54.1563	127.88	217.964
1.49	54.2555	127.734	218.011
1.4925	54.3548	127.588	218.057
1.495	54.4539	127.442	218.104
1.4975	54.553	127.298	218.149
1.5	54.6521	127.153	218.195
1.5025	54.7511	127.009	218.24
1.505	54.85	126.866	218.284
1.5075	54.9488	126.723	218.328
1.51	55.0476	126.58	218.372
1.5125	55.1464	126.438	218.415
1.515	55.2451	126.297	218.458
1.5175	55.3437	126.156	218.501
1.52	55.4422	126.015	218.543
1.5225	55.5407	125.875	218.584
1.525	55.6391	125.735	218.626
1.5275	55.7375	125.596	218.666
1.53	55.8358	125.457	218.707
1.5325	55.934	125.319	218.747
1.535	56.0321	125.181	218.787
1.5375	56.1302	125.044	218.826
1.54	56.2283	124.907	218.865
1.5425	56.3262	124.77	218.903
1.545	56.4241	124.634	218.941
1.5475	56.522	124.499	218.979
1.55	56.6197	124.364	219.016
1.5525	56.7174	124.229	219.053
1.555	56.8151	124.095	219.09
1.5575	56.9126	123.961	219.126
1.56	57.0101	123.828	219.162
1.5625	57.1076	123.695	219.197
1.565	57.2049	123.563	219.232
1.5675	57.3022	123.431	219.267
1.57	57.3995	123.299	219.301
1.5725	57.4966	123.168	219.335
1.575	57.5937	123.037	219.369
1.5775	57.6907	122.907	219.402
1.58	57.7877	122.777	219.435
1.5825	57.8846	122.648	219.467
1.585	57.9814	122.519	219.5
1.5875	58.0781	122.391	219.531
1.59	58.1748	122.263	219.563
1.5925	58.2714	122.135	219.594
1.595	58.3679	122.008	219.624
1.5975	58.4644	121.881	219.655
1.6	58.5608	121.755	219.685
1.6025	58.6571	121.629	219.714
1.605	58.7534	121.503	219.743
1.6075	58.8495	121.378	219.772
1.61	58.9456	121.253	219.801
1.6125	59.0417	121.129	219.829
1.615	59.1376	121.005	219.857
1.6175	59.2335	120.882	219.885
1.62	59.3293	120.759	219.912
1.6225	59.4251	120.636	219.939
1.625	59.5207	120.514	219.965
1.6275	59.6163	120.392	219.991
1.63	59.7118	120.271	220.017
1.6325	59.8073	120.15	220.042
1.635	59.9027	120.03	220.068
1.6375	59.9979	119.91	220.092
1.64	60.0932	119.79	220.117
1.6425	60.1883	119.671	220.141
1.645	60.2834	119.552	220.165
1.6475	60.3784	119.433	220.188
1.65	60.4733	119.315	220.212
1.6525	60.5681	119.197	220.235
1.655	60.6629	119.08	220.257
1.6575	60.7576	118.963	220.279
1.66	60.8522	118.847	220.301
1.6625	60.9467	118.73	220.323
1.665	61.0412	118.615	220.344
1.6675	61.1356	118.499	220.365
1.67	61.2299	118.384	220.386
1.6725	61.3241	118.27	220.406
1.675	61.4183	118.156	220.426
1.6775	61.5123	118.042	220.446
1.68	61.6063	117.929	220.465
1.6825	61.7002	117.816	220.484
1.685	61.7941	117.703	220.503
1.6875	61.8878	117.591	220.521
1.69	61.9815	117.479	220.54
1.6925	62.0751	117.367	220.557
1.695	62.1686	117.256	220.575
1.6975	62.2621	117.146	220.592
1.7	62.3554	117.035	220.609
1.7025	62.4487	116.925	220.626
1.705	62.5419	116.816	220.642
1.7075	62.635	116.707	220.658
1.71	62.728	116.598	220.674
1.7125	62.821	116.489	220.69
1.715	62.9139	116.381	220.705
1.7175	63.0067	116.273	220.72
1.72	63.0994	116.166	220.734
1.7225	63.192	116.059	220.749
1.725	63.2845	115.953	220.763
1.7275	63.377	115.846	220.777
1.73	63.4694	115.74	220.79
1.7325	63.5617	115.635	220.803
1.735	63.6539	115.53	220.816
1.7375	63.746	115.425	220.829
1.74	63.8381	115.321	220.841
1.7425	63.93	115.216	220.854
1.745	64.0219	115.113	220.865
1.7475	64.1137	115.009	220.877
1.75	64.2054	114.906	220.888
1.7525	64.297	114.804	220.899
1.755	64.3886	114.701	220.91
1.7575	64.48	114.599	220.92
1.76	64.5714	114.498	220.931
1.7625	64.6627	114.397	220.941
1.765	64.7539	114.296	220.95
1.7675	64.845	114.195	220.96
1.77	64.9361	114.095	220.969
1.7725	65.027	113.995	220.978
1.775	65.1179	113.896	220.986
1.7775	65.2086	113.797	220.995
1.78	65.2993	113.698	221.003
1.7825	65.3899	113.599	221.011
1.785	65.4804	113.501	221.018
1.7875	65.5709	113.403	221.026
1.79	65.6612	113.306	221.033
1.7925	65.7515	113.209	221.04
1.795	65.8416	113.112	221.046
1.7975	65.9317	113.016	221.053
1.8	66.0217	112.92	221.059
1.8025	66.1116	112.824	221.065
1.805	66.2014	112.728	221.07
1.8075	66.2911	112.633	221.076
1.81	66.3808	112.539	221.081
1.8125	66.4703	112.444	221.086
1.815	66.5598	112.35	221.09
1.8175	66.6491	112.256	221.095
1.82	66.7384	112.163	221.099
1.8225	66.8276	112.07	221.103
1.825	66.9167	111.977	221.106
1.8275	67.0057	111.885	221.11
1.83	67.0946	111.792	221.113
1.8325	67.1835	111.701	221.116
1.835	67.2722	111.609	221.119
1.8375	67.3609	111.518	221.121
1.84	67.4494	111.427	221.123
1.8425	67.5379	111.337	221.126
1.845	67.6263	111.246	221.127
1.8475	67.7145	111.157	221.129
1.85	67.8027	111.067	221.13
1.8525	67.8908	110.978	221.131
1.855	67.9788	110.889	221.132
1.8575	68.0668	110.8	221.133
1.86	68.1546	110.712	221.134
1.8625	68.2423	110.624	221.134
1.865	68.33	110.536	221.134
1.8675	68.4175	110.449	221.134
1.87	68.505	110.362	221.133
1.8725	68.5923	110.275	221.133
1.875	68.6796	110.189	221.132
1.8775	68.7668	110.103	221.131
1.88	68.8538	110.017	221.129
1.8825	68.9408	109.931	221.128
1.885	69.0277	109.846	221.126
1.8875	69.1145	109.761	221.124
1.89	69.2012	109.676	221.122
1.8925	69.2878	109.592	221.12
1.895	69.3744	109.508	221.117
1.8975	69.4608	109.424	221.115
1.9	69.5471	109.341	221.112
1.9025	69.6334	109.258	221.109
1.905	69.7195	109.175	221.105
1.9075	69.8055	109.093	221.102
1.91	69.8915	109.011	221.098
1.9125	69.9773	108.929	221.094
1.915	70.0631	108.847	221.09
1.9175	70.1487	108.766	221.086
1.92	70.2343	108.685	221.081
1.9225	70.3198	108.604	221.076
1.925	70.4052	108.523	221.071
1.9275	70.4904	108.443	221.066
1.93	70.5756	108.363	221.061
1.9325	70.6607	108.284	221.055
1.935	70.7457	108.205	221.05
1.9375	70.8306	108.126	221.044
1.94	70.9154	108.047	221.038
1.9425	71.0001	107.969	221.031
1.945	71.0846	107.89	221.025
1.9475	71.1691	107.813	221.018
1.95	71.2535	107.735	221.011
1.9525	71.3378	107.658	221.004
1.955	71.4221	107.581	220.997
1.9575	71.5062	107.504	220.99
1.96	71.5902	107.428	220.982
1.9625	71.6741	107.351	220.975
1.965	71.7579	107.275	220.967
1.9675	71.8416	107.2	220.959
1.97	71.9252	107.125	220.95
1.9725	72.0087	107.049	220.942
1.975	72.0921	106.975	220.933
1.9775	72.1755	106.9	220.924
1.98	72.2587	106.826	220.915
1.9825	72.3418	106.752	220.906
1.985	72.4248	106.678	220.897
1.9875	72.5077	106.605	220.887
1.99	72.5905	106.532	220.878
1.9925	72.6733	106.459	220.868
1.995	72.7559	106.386	220.858
1.9975	72.8384	106.314	220.848
2	72.9208	106.242	220.837
2.0025	73.0031	106.17	220.827
2.005	73.0853	106.099	220.816
2.0075	73.1675	106.027	220.805
2.01	73.2495	105.956	220.794
2.0125	73.3314	105.886	220.783
2.015	73.4132	105.815	220.772
2.0175	73.4949	105.745	220.76
2.02	73.5765	105.675	220.748
2.0225	73.658	105.605	220.737
2.025	73.7394	105.536	220.725
2.0275	73.8207	105.467	220.712
2.03	73.9019	105.398	220.7
2.0325	73.983	105.329	220.688
2.035	74.064	105.261	220.675
2.0375	74.1449	105.193	220.662
2.04	74.2257	105.125	220.649
2.0425	74.3064	105.057	220.636
2.045	74.3869	104.99	220.623
2.0475	74.4674	104.923	220.61
2.05	74.5478	104.856	220.596
2.0525	74.6281	104.789	220.582
2.055	74.7082	104.723	220.569
2.0575	74.7883	104.657	220.555
2.06	74.8683	104.591	220.541
2.0625	74.9481	104.526	220.526
2.065	75.0279	104.46	220.512
2.0675	75.1075	104.395	220.497
2.07	75.1871	104.33	220.483
2.0725	75.2665	104.266	220.468
2.075	75.3459	104.201	220.453
2.0775	75.4251	104.137	220.438
2.08	75.5042	104.073	220.422
2.0825	75.5833	104.01	220.407
2.085	75.6622	103.946	220.391
2.0875	75.741	103.883	220.376
2.09	75.8197	103.82	220.36
2.0925	75.8983	103.758	220.344
2.095	75.9768	103.695	220.328
2.0975	76.0552	103.633	220.312
2.1	76.1335	103.571	220.295
2.1025	76.2117	103.51	220.279
2.105	76.2898	103.448	220.262
2.1075	76.3678	103.387	220.245
2.11	76.4456	103.326	220.228
2.1125	76.5234	103.265	220.211
2.115	76.601	103.205	220.194
2.1175	76.6786	103.145	220.177
2.12	76.756	103.085	220.159
2.1225	76.8334	103.025	220.142
2.125	76.9106	102.965	220.124
2.1275	76.9877	102.906	220.106
2.13	77.0647	102.847	220.088
2.1325	77.1417	102.788	220.07
2.135	77.2185	102.729	220.052
2.1375	77.2952	102.671	220.034
2.14	77.3717	102.613	220.015
2.1425	77.4482	102.555	219.997
2.145	77.5246	102.497	219.978
2.1475	77.6009	102.44	219.959
2.15	77.677	102.382	219.941
2.1525	77.7531	102.325	219.922
2.155	77.829	102.269	219.902
2.1575	77.9049	102.212	219.883
2.16	77.9806	102.156	219.864
2.1625	78.0562	102.1	219.844
2.165	78.1317	102.044	219.825
2.1675	78.2071	101.988	219.805
2.17	78.2824	101.933	219.785
2.1725	78.3576	101.877	219.765
2.175	78.4327	101.822	219.745
2.1775	78.5077	101.767	219.725
2.18	78.5825	101.713	219.705
2.1825	78.6573	101.659	219.684
2.185	78.7319	101.604	219.664
2.1875	78.8065	101.551	219.643
2.19	78.8809	101.497	219.622
2.1925	78.9552	101.443	219.601
2.195	79.0294	101.39	219.581
2.1975	79.1035	101.337	219.559
2.2	79.1775	101.284	219.538
2.2025	79.2514	101.232	219.517
2.205	79.3252	101.179	219.496
2.2075	79.3988	101.127	219.474
2.21	79.4724	101.075	219.453
2.2125	79.5458	101.023	219.431
2.215	79.6192	100.972	219.409
2.2175	79.6924	100.92	219.387
2.22	79.7655	100.869	219.365
2.2225	79.8385	100.818	219.343
2.225	79.9114	100.768	219.321
2.2275	79.9842	100.717	219.299
2.23	80.0569	100.667	219.276
2.2325	80.1294	100.617	219.254
2.235	80.2019	100.567	219.231
2.2375	80.2742	100.517	219.209
2.24	80.3465	100.468	219.186
2.2425	80.4186	100.418	219.163
2.245	80.4906	100.369	219.14
2.2475	80.5625	100.321	219.117
2.25	80.6343	100.272	219.094
2.2525	80.706	100.223	219.071
2.255	80.7775	100.175	219.047
2.2575	80.849	100.127	219.024
2.26	80.9203	100.079	219
2.2625	80.9916	100.032	218.977
2.265	81.0627	99.9842	218.953
2.2675	81.1337	99.937	218.929
2.27	81.2046	99.89	218.905
2.2725	81.2754	99.8431	218.881
2.275	81.3461	99.7965	218.857
2.2775	81.4166	99.75	218.833
2.28	81.4871	99.7038	218.809
2.2825	81.5574	99.6577	218.785
2.285	81.6277	99.6119	218.76
2.2875	81.6978	99.5662	218.736
2.29	81.7678	99.5208	218.711
2.2925	81.8377	99.4755	218.687
2.295	81.9074	99.4304	218.662
2.2975	81.9771	99.3856	218.637
2.3	82.0467	99.3409	218.612
2.3025	82.1161	99.2964	218.587
2.305	82.1855	99.2521	218.562
2.3075	82.2547	99.208	218.537
2.31	82.3238	99.1641	218.512
2.3125	82.3928	99.1203	218.487
2.315	82.4617	99.0768	218.462
2.3175	82.5304	99.0335	218.436
2.32	82.5991	98.9903	218.411
2.3225	82.6676	98.9473	218.385
2.325	82.7361	98.9046	218.359
2.3275	82.8044	98.862	218.334
2.33	82.8726	98.8196	218.308
2.3325	82.9407	98.7773	218.282
2.335	83.0087	98.7353	218.256
2.3375	83.0765	98.6935	218.23
2.34	83.1443	98.6518	218.204
2.3425	83.2119	98.6103	218.178
2.345	83.2794	98.569	218.152
2.3475	83.3469	98.5279	218.125
2.35	83.4142	98.487	218.099
2.3525	83.4813	98.4462	218.072
2.355	83.5484	98.4057	218.046
2.3575	83.6154	98.3653	218.019
2.36	83.6822	98.3251	217.993
2.3625	83.749	98.2851	217.966
2.365	83.8156	98.2452	217.939
2.3675	83.8821	98.2056	217.912
2.37	83.9485	98.1661	217.885
2.3725	84.0147	98.1268	217.858
2.375	84.0809	98.0876	217.831
2.3775	84.147	98.0487	217.804
2.38	84.2129	98.0099	217.777
2.3825	84.2787	97.9713	217.75
2.385	84.3444	97.9329	217.723
2.3875	84.41	97.8947	217.695
2.39	84.4755	97.8566	217.668
2.3925	84.5409	97.8187	217.64
2.395	84.6061	97.781	217.613
2.3975	84.6713	97.7435	217.585
2.4	84.7363	97.7061	217.558
2.4025	84.8012	97.6689	217.53
2.405	84.866	97.6319	217.502
2.4075	84.9307	97.595	217.474
2.41	84.9952	97.5583	217.446
2.4125	85.0597	97.5218	217.419
2.415	85.124	97.4855	217.391
2.4175	85.1882	97.4493	217.362
2.42	85.2523	97.4133	217.334
2.4225	85.3163	97.3775	217.306
2.425	85.3802	97.3418	217.278
2.4275	85.444	97.3063	217.25
2.43	85.5076	97.271	217.221
2.4325	85.5712	97.2358	217.193
2.435	85.6346	97.2008	217.165
2.4375	85.6979	97.166	217.136
2.44	85.7611	97.1314	217.108
2.4425	85.8241	97.0969	217.079
2.445	85.8871	97.0625	217.05
2.4475	85.95	97.0284	217.022
2.45	86.0127	96.9944	216.993
2.4525	86.0753	96.9605	216.964
2.455	86.1378	96.9269	216.935
2.4575	86.2002	96.8934	216.906
2.46	86.2625	96.86	216.878
2.4625	86.3246	96.8268	216.849
2.465	86.3866	96.7938	216.82
2.4675	86.4486	96.7609	216.79
2.47	86.5104	96.7282	216.761
2.4725	86.5721	96.6957	216.732
2.475	86.6337	96.6633	216.703
2.4775	86.6951	96.6311	216.674
2.48	86.7565	96.599	216.644
2.4825	86.8177	96.5671	216.615
2.485	86.8788	96.5354	216.586
2.4875	86.9398	96.5038	216.556
2.49	87.0007	96.4724	216.527
2.4925	87.0615	96.4411	216.497
2.495	87.1221	96.41	216.468
2.4975	87.1827	96.379	216.438
2.5	87.2431	96.3482	216.409
2.5025	87.3034	96.3176	216.379
2.505	87.3636	96.2871	216.349
2.5075	87.4237	96.2567	216.32
2.51	87.4837	96.2265	216.29
2.5125	87.5435	96.1965	216.26
2.515	87.6032	96.1666	216.23
2.5175	87.6629	96.1369	216.2
2.52	87.7224	96.1073	216.17
2.5225	87.7817	96.0779	216.14
2.525	87.841	96.0486	216.11
2.5275	87.9002	96.0195	216.08
2.53	87.9592	95.9905	216.05
2.5325	88.0181	95.9617	216.02
2.535	88.0769	95.933	215.99
2.5375	88.1356	95.9045	215.96
2.54	88.1942	95.8762	215.93
2.5425	88.2527	95.8479	215.899
2.545	88.311	95.8199	215.869
2.5475	88.3692	95.7919	215.839
2.55	88.4274	95.7642	215.808
2.5525	88.4854	95.7365	215.778
2.555	88.5432	95.709	215.748
2.5575	88.601	95.6817	215.717
2.56	88.6587	95.6545	215.687
2.5625	88.7162	95.6275	215.656
2.565	88.7736	95.6005	215.626
2.5675	88.8309	95.5738	215.595
2.57	88.8881	95.5472	215.565
2.5725	88.9452	95.5207	215.534
2.575	89.0021	95.4944	215.503
2.5775	89.059	95.4682	215.473
2.58	89.1157	95.4421	215.442
2.5825	89.1723	95.4162	215.411
2.585	89.2288	95.3905	215.381
2.5875	89.2852	95.3649	215.35
2.59	89.3414	95.3394	215.319
2.5925	89.3976	95.3141	215.288
2.595	89.4536	95.2889	215.258
2.5975	89.5095	95.2638	215.227
2.6	89.5653	95.2389	215.196
2.6025	89.621	95.2141	215.165
2.605	89.6766	95.1895	215.134
2.6075	89.732	95.165	215.103
2.61	89.7874	95.1406	215.072
2.6125	89.8426	95.1164	215.041
2.615	89.8977	95.0923	215.01
2.6175	89.9527	95.0684	214.979
2.62	90.0076	95.0446	214.948
2.6225	90.0623	95.0209	214.917
2.625	90.117	94.9974	214.886
2.6275	90.1715	94.974	214.855
2.63	90.2259	94.9507	214.823
2.6325	90.2802	94.9275	214.792
2.635	90.3344	94.9046	214.761
2.6375	90.3885	94.8817	214.73
2.64	90.4424	94.859	214.699
2.6425	90.4962	94.8364	214.667
2.645	90.55	94.8139	214.636
2.6475	90.6036	94.7916	214.605
2.65	90.657	94.7694	214.574
2.6525	90.7104	94.7473	214.542
2.655	90.7637	94.7253	214.511
2.6575	90.8168	94.7035	214.48
2.66	90.8698	94.6819	214.448
2.6625	90.9228	94.6603	214.417
2.665	90.9755	94.6389	214.386
2.6675	91.0282	94.6176	214.354
2.67	91.0808	94.5965	214.323
2.6725	91.1332	94.5754	214.291
2.675	91.1856	94.5545	214.26
2.6775	91.2378	94.5338	214.228
2.68	91.2899	94.5131	214.197
2.6825	91.3419	94.4926	214.166
2.685	91.3937	94.4722	214.134
2.6875	91.4455	94.4519	214.103
2.69	91.4971	94.4318	214.071
2.6925	91.5487	94.4118	214.04
2.695	91.6001	94.3919	214.008
2.6975	91.6514	94.3721	213.976
2.7	91.7025	94.3525	213.945
2.7025	91.7536	94.333	213.913
2.705	91.8046	94.3136	213.882
2.7075	91.8554	94.2944	213.85
2.71	91.9061	94.2752	213.819
2.7125	91.9567	94.2562	213.787
2.715	92.0072	94.2373	213.755
2.7175	92.0576	94.2185	213.724
2.72	92.1078	94.1999	213.692
2.7225	92.158	94.1814	213.661
2.725	92.208	94.163	213.629
2.7275	92.2579	94.1447	213.597
2.73	92.3077	94.1265	213.566
2.7325	92.3574	94.1085	213.534
2.735	92.407	94.0906	213.502
2.7375	92.4564	94.0728	213.471
2.74	92.5058	94.0551	213.439
2.7425	92.555	94.0375	213.407
2.745	92.6041	94.0201	213.376
2.7475	92.6531	94.0027	213.344
2.75	92.702	93.9855	213.312
2.7525	92.7508	93.9685	213.281
2.755	92.7994	93.9515	213.249
2.7575	92.848	93.9346	213.217
2.76	92.8964	93.9179	213.186
2.7625	92.9447	93.9013	213.154
2.765	92.9929	93.8848	213.122
2.7675	93.041	93.8684	213.091
2.77	93.0889	93.8521	213.059
2.7725	93.1368	93.8359	213.027
2.775	93.1845	93.8199	212.996
2.7775	93.2321	93.804	212.964
2.78	93.2796	93.7882	212.932
2.7825	93.327	93.7725	212.9
2.785	93.3743	93.7569	212.869
2.7875	93.4215	93.7414	212.837
2.79	93.4685	93.726	212.805
2.7925	93.5155	93.7108	212.774
2.795	93.5623	93.6957	212.742
2.7975	93.609	93.6806	212.71
2.8	93.6556	93.6657	212.679
2.8025	93.7021	93.6509	212.647
2.805	93.7485	93.6362	212.615
2.8075	93.7947	93.6217	212.584
2.81	93.8409	93.6072	212.552
2.8125	93.8869	93.5928	212.52
2.815	93.9328	93.5786	212.489
2.8175	93.9786	93.5644	212.457
2.82	94.0243	93.5504	212.425
2.8225	94.0699	93.5365	212.394
2.825	94.1153	93.5227	212.362
2.8275	94.1607	93.509	212.33
2.83	94.2059	93.4954	212.299
2.8325	94.251	93.4819	212.267
2.835	94.296	93.4685	212.235
2.8375	94.3409	93.4552	212.204
2.84	94.3857	93.4421	212.172
2.8425	94.4304	93.429	212.141
2.845	94.4749	93.416	212.109
2.8475	94.5194	93.4032	212.077
2.85	94.5637	93.3904	212.046
2.8525	94.6079	93.3778	212.014
2.855	94.652	93.3653	211.983
2.8575	94.696	93.3528	211.951
2.86	94.7399	93.3405	211.92
2.8625	94.7837	93.3283	211.888
2.865	94.8273	93.3162	211.856
2.8675	94.8709	93.3042	211.825
2.87	94.9143	93.2922	211.793
2.8725	94.9576	93.2804	211.762
2.875	95.0008	93.2687	211.73
2.8775	95.0439	93.2571	211.699
2.88	95.0869	93.2456	211.667
2.8825	95.1298	93.2342	211.636
2.885	95.1725	93.2229	211.605
2.8875	95.2152	93.2117	211.573
2.89	95.2577	93.2006	211.542
2.8925	95.3001	93.1896	211.51
2.895	95.3424	93.1787	211.479
2.8975	95.3846	93.1679	211.447
2.9	95.4267	93.1572	211.416
2.9025	95.4687	93.1466	211.385
2.905	95.5105	93.1361	211.353
2.9075	95.5523	93.1257	211.322
2.91	95.5939	93.1154	211.291
2.9125	95.6354	93.1052	211.259
2.915	95.6769	93.0951	211.228
2.9175	95.7182	93.0851	211.197
2.92	95.7594	93.0751	211.165
2.9225	95.8004	93.0653	211.134
2.925	95.8414	93.0556	211.103
2.9275	95.8823	93.046	211.072
2.93	95.923	93.0365	211.041
2.9325	95.9636	93.027	211.009
2.935	96.0042	93.0177	210.978
2.9375	96.0446	93.0084	210.947
2.94	96.0849	92.9993	210.916
2.9425	96.1251	92.9902	210.885
2.945	96.1652	92.9813	210.854
2.9475	96.2051	92.9724	210.822
2.95	96.245	92.9636	210.791
2.9525	96.2848	92.9549	210.76
2.955	96.3244	92.9464	210.729
2.9575	96.3639	92.9379	210.698
2.96	96.4034	92.9295	210.667
2.9625	96.4427	92.9212	210.636
2.965	96.4819	92.9129	210.605
2.9675	96.521	92.9048	210.574
2.97	96.5599	92.8968	210.543
2.9725	96.5988	92.8888	210.512
2.975	96.6376	92.881	210.481
2.9775	96.6762	92.8732	210.451
2.98	96.7148	92.8655	210.42
2.9825	96.7532	92.858	210.389
2.985	96.7915	92.8505	210.358
2.9875	96.8297	92.8431	210.327
2.99	96.8678	92.8357	210.296
2.9925	96.9058	92.8285	210.266
2.995	96.9437	92.8214	210.235
2.9975	96.9815	92.8143	210.204
3	97.0192	92.8074	210.173
3.0025	97.0567	92.8005	210.143
3.005	97.0942	92.7937	210.112
3.0075	97.1315	92.787	210.081
3.01	97.1688	92.7804	210.051
3.0125	97.2059	92.7739	210.02
3.015	97.2429	92.7675	209.99
3.0175	97.2798	92.7611	209.959
3.02	97.3166	92.7548	209.929
3.0225	97.3533	92.7487	209.898
3.025	97.3899	92.7426	209.868
3.0275	97.4264	92.7366	209.837
3.03	97.4627	92.7306	209.807
3.0325	97.499	92.7248	209.776
3.035	97.5351	92.719	209.746
3.0375	97.5712	92.7134	209.715
3.04	97.6071	92.7078	209.685
3.0425	97.643	92.7023	209.655
3.045	97.6787	92.6969	209.624
3.0475	97.7143	92.6915	209.594
3.05	97.7498	92.6863	209.564
3.0525	97.7852	92.6811	209.534
3.055	97.8205	92.676	209.504
3.0575	97.8557	92.671	209.473
3.06	97.8908	92.6661	209.443
3.0625	97.9257	92.6612	209.413
3.065	97.9606	92.6564	209.383
3.0675	97.9953	92.6518	209.353
3.07	98.03	92.6472	209.323
3.0725	98.0645	92.6426	209.293
3.075	98.099	92.6382	209.263
3.0775	98.1333	92.6338	209.233
3.08	98.1675	92.6295	209.203
3.0825	98.2017	92.6253	209.173
3.085	98.2357	92.6212	209.143
3.0875	98.2696	92.6172	209.113
3.09	98.3034	92.6132	209.083
3.0925	98.3371	92.6093	209.054
3.095	98.3707	92.6055	209.024
3.0975	98.4042	92.6018	208.994
3.1	98.4375	92.5981	208.964
3.1025	98.4708	92.5945	208.935
3.105	98.504	92.591	208.905
3.1075	98.537	92.5876	208.875
3.11	98.57	92.5843	208.846
3.1125	98.6029	92.581	208.816
3.115	98.6356	92.5778	208.787
3.1175	98.6683	92.5747	208.757
3.12	98.7008	92.5716	208.728
3.1225	98.7332	92.5687	208.698
3.125	98.7656	92.5658	208.669
3.1275	98.7978	92.563	208.639
3.13	98.8299	92.5602	208.61
3.1325	98.8619	92.5575	208.581
3.135	98.8938	92.5549	208.551
3.1375	98.9256	92.5524	208.522
3.14	98.9573	92.55	208.493
3.1425	98.9889	92.5476	208.463
3.145	99.0204	92.5453	208.434
3.1475	99.0518	92.5431	208.405
3.15	99.0831	92.5409	208.376
3.1525	99.1143	92.5388	208.347
3.155	99.1454	92.5368	208.318
3.1575	99.1764	92.5349	208.289
3.16	99.2073	92.533	208.26
3.1625	99.238	92.5312	208.231
3.165	99.2687	92.5295	208.202
3.1675	99.2993	92.5278	208.173
3.17	99.3297	92.5262	208.144
3.1725	99.3601	92.5247	208.115
3.175	99.3904	92.5233	208.086
3.1775	99.4205	92.5219	208.058
3.18	99.4506	92.5206	208.029
3.1825	99.4805	92.5194	208
3.185	99.5104	92.5182	207.971
3.1875	99.5401	92.5171	207.943
3.19	99.5698	92.5161	207.914
3.1925	99.5993	92.5151	207.886
3.195	99.6288	92.5142	207.857
3.1975	99.6581	92.5134	207.828
3.2	99.6874	92.5126	207.8
3.2025	99.7165	92.5119	207.772
3.205	99.7455	92.5113	207.743
3.2075	99.7745	92.5108	207.715
3.21	99.8033	92.5103	207.686
3.2125	99.8321	92.5098	207.658
3.215	99.8607	92.5095	207.63
3.2175	99.8892	92.5092	207.602
3.22	99.9177	92.509	207.573
3.2225	99.946	92.5088	207.545
3.225	99.9742	92.5087	207.517
3.2275	100.002	92.5087	207.489
3.23	100.03	92.5087	207.461
3.2325	100.058	92.5088	207.433
3.235	100.086	92.509	207.405
3.2375	100.114	92.5092	207.377
3.24	100.142	92.5095	207.349
3.2425	100.169	92.5099	207.321
3.245	100.197	92.5103	207.293
3.2475	100.224	92.5108	207.265
3.25	100.251	92.5114	207.238
3.2525	100.278	92.512	207.21
3.255	100.305	92.5126	207.182
3.2575	100.332	92.5134	207.154
3.26	100.359	92.5142	207.127
3.2625	100.386	92.515	207.099
3.265	100.412	92.516	207.072
3.2675	100.439	92.5169	207.044
3.27	100.465	92.518	207.017
3.2725	100.492	92.5191	206.989
3.275	100.518	92.5203	206.962
3.2775	100.544	92.5215	206.934
3.28	100.57	92.5228	206.907
3.2825	100.596	92.5241	206.88
3.285	100.622	92.5255	206.852
3.2875	100.648	92.527	206.825
3.29	100.673	92.5285	206.798
3.2925	100.699	92.5301	206.771
3.295	100.725	92.5318	206.744
3.2975	100.75	92.5335	206.717
3.3	100.775	92.5352	206.69
3.3025	100.8	92.5371	206.663
3.305	100.825	92.5389	206.636
3.3075	100.85	92.5409	206.609
3.31	100.875	92.5429	206.582
3.3125	100.9	92.5449	206.555
3.315	100.925	92.547	206.528
3.3175	100.949	92.5492	206.501
3.32	100.974	92.5514	206.475
3.3225	100.998	92.5537	206.448
3.325	101.023	92.5561	206.421
3.3275	101.047	92.5585	206.395
3.33	101.071	92.5609	206.368
3.3325	101.095	92.5634	206.342
3.335	101.119	92.566	206.315
3.3375	101.143	92.5686	206.289
3.34	101.167	92.5713	206.262
3.3425	101.19	92.574	206.236
3.345	101.214	92.5768	206.209
3.3475	101.237	92.5796	206.183
3.35	101.261	92.5825	206.157
3.3525	101.284	92.5854	206.131
3.355	101.307	92.5884	206.104
3.3575	101.33	92.5915	206.078
3.36	101.353	92.5946	206.052
3.3625	101.376	92.5978	206.026
3.365	101.399	92.601	206
3.3675	101.422	92.6042	205.974
3.37	101.444	92.6076	205.948
3.3725	101.467	92.6109	205.922
3.375	101.489	92.6143	205.896
3.3775	101.512	92.6178	205.871
3.38	101.534	92.6213	205.845
3.3825	101.556	92.6249	205.819
3.385	101.578	92.6286	205.793
3.3875	101.6	92.6322	205.768
3.39	101.622	92.636	205.742
3.3925	101.644	92.6397	205.717
3.395	101.665	92.6436	205.691
3.3975	101.687	92.6475	205.666
3.4	101.708	92.6514	205.64
3.4025	101.73	92.6554	205.615
3.405	101.751	92.6594	205.589
3.4075	101.772	92.6635	205.564
3.41	101.794	92.6676	205.539
3.4125	101.815	92.6718	205.514
3.415	101.836	92.676	205.488
3.4175	101.856	92.6803	205.463
3.42	101.877	92.6846	205.438
3.4225	101.898	92.689	205.413
3.425	101.918	92.6934	205.388
3.4275	101.939	92.6979	205.363
3.43	101.959	92.7024	205.338
3.4325	101.98	92.707	205.313
3.435	102	92.7116	205.288
3.4375	102.02	92.7162	205.264
3.44	102.04	92.721	205.239
3.4425	102.06	92.7257	205.214
3.445	102.08	92.7305	205.189
3.4475	102.1	92.7353	205.165
3.45	102.12	92.7402	205.14
3.4525	102.139	92.7452	205.116
3.455	102.159	92.7502	205.091
3.4575	102.178	92.7552	205.067
3.46	102.198	92.7603	205.042
3.4625	102.217	92.7654	205.018
3.465	102.236	92.7705	204.994
3.4675	102.255	92.7758	204.969
3.47	102.274	92.781	204.945
3.4725	102.293	92.7863	204.921
3.475	102.312	92.7916	204.897
3.4775	102.33	92.797	204.872
3.48	102.349	92.8025	204.848
3.4825	102.368	92.8079	204.824
3.485	102.386	92.8134	204.8
3.4875	102.405	92.819	204.776
3.49	102.423	92.8246	204.753
3.4925	102.441	92.8302	204.729
3.495	102.459	92.8359	204.705
3.4975	102.477	92.8417	204.681
3.5	102.495	92.8474	204.657
3.5025	102.513	92.8532	204.634
3.505	102.531	92.8591	204.61
3.5075	102.549	92.865	204.586
3.51	102.566	92.8709	204.563
3.5125	102.584	92.8769	204.539
3.515	102.601	92.8829	204.516
3.5175	102.618	92.889	204.493
3.52	102.636	92.8951	204.469
3.5225	102.653	92.9012	204.446
3.525	102.67	92.9074	204.423
3.5275	102.687	92.9136	204.399
3.53	102.704	92.9199	204.376
3.5325	102.721	92.9262	204.353
3.535	102.738	92.9325	204.33
3.5375	102.754	92.9389	204.307
3.54	102.771	92.9453	204.284
3.5425	102.787	92.9518	204.261
3.545	102.804	92.9583	204.238
3.5475	102.82	92.9648	204.215
3.55	102.836	92.9714	204.192
3.5525	102.853	92.978	204.169
3.555	102.869	92.9847	204.147
3.5575	102.885	92.9913	204.124
3.56	102.901	92.9981	204.101
3.5625	102.916	93.0048	204.079
3.565	102.932	93.0116	204.056
3.5675	102.948	93.0185	204.034
3.57	102.964	93.0253	204.011
3.5725	102.979	93.0323	203.989
3.575	102.994	93.0392	203.966
3.5775	103.01	93.0462	203.944
3.58	103.025	93.0532	203.922
3.5825	103.04	93.0603	203.899
3.585	103.055	93.0674	203.877
3.5875	103.07	93.0745	203.855
3.59	103.085	93.0816	203.833
3.5925	103.1	93.0888	203.811
3.595	103.115	93.0961	203.789
3.5975	103.13	93.1033	203.767
3.6	103.144	93.1106	203.745
3.6025	103.159	93.118	203.723
3.605	103.173	93.1253	203.701
3.6075	103.188	93.1328	203.68
3.61	103.202	93.1402	203.658
3.6125	103.216	93.1477	203.636
3.615	103.23	93.1552	203.614
3.6175	103.244	93.1627	203.593
3.62	103.258	93.1703	203.571
3.6225	103.272	93.1779	203.55
3.625	103.286	93.1855	203.528
3.6275	103.3	93.1932	203.507
3.63	103.314	93.2009	203.485
3.6325	103.327	93.2086	203.464
3.635	103.341	93.2164	203.443
3.6375	103.354	93.2242	203.422
3.64	103.368	93.232	203.4
3.6425	103.381	93.2399	203.379
3.645	103.394	93.2478	203.358
3.6475	103.407	93.2557	203.337
3.65	103.42	93.2637	203.316
3.6525	103.433	93.2717	203.295
3.655	103.446	93.2797	203.274
3.6575	103.459	93.2878	203.253
3.66	103.472	93.2958	203.233
3.6625	103.484	93.304	203.212
3.665	103.497	93.3121	203.191
3.6675	103.509	93.3203	203.17
3.67	103.522	93.3285	203.15
3.6725	103.534	93.3367	203.129
3.675	103.546	93.345	203.109
3.6775	103.559	93.3533	203.088
3.68	103.571	93.3616	203.068
3.6825	103.583	93.3699	203.047
3.685	103.595	93.3783	203.027
3.6875	103.607	93.3867	203.007
3.69	103.619	93.3951	202.986
3.6925	103.63	93.4036	202.966
3.695	103.642	93.4121	202.946
3.6975	103.654	93.4206	202.926
3.7	103.665	93.4292	202.906
3.7025	103.677	93.4377	202.886
3.705	103.688	93.4463	202.866
3.7075	103.699	93.455	202.846
3.71	103.711	93.4636	202.826
3.7125	103.722	93.4723	202.806
3.715	103.733	93.481	202.786
3.7175	103.744	93.4898	202.766
3.72	103.755	93.4985	202.747
3.7225	103.766	93.5073	202.727
3.725	103.777	93.5161	202.707
3.7275	103.787	93.525	202.688
3.73	103.798	93.5338	202.668
3.7325	103.808	93.5427	202.649
3.735	103.819	93.5517	202.629
3.7375	103.829	93.5606	202.61
3.74	103.84	93.5696	202.591
3.7425	103.85	93.5786	202.571
3.745	103.86	93.5876	202.552
3.7475	103.87	93.5966	202.533
3.75	103.881	93.6057	202.514
3.7525	103.891	93.6148	202.495
3.755	103.901	93.6239	202.476
3.7575	103.91	93.633	202.457
3.76	103.92	93.6422	202.438
3.7625	103.93	93.6514	202.419
3.765	103.94	93.6606	202.4
3.7675	103.949	93.6699	202.381
3.77	103.959	93.6791	202.362
3.7725	103.968	93.6884	202.343
3.775	103.977	93.6977	202.325
3.7775	103.987	93.707	202.306
3.78	103.996	93.7164	202.288
3.7825	104.005	93.7258	202.269
3.785	104.014	93.7351	202.251
3.7875	104.023	93.7446	202.232
3.79	104.032	93.754	202.214
3.7925	104.041	93.7635	202.195
3.795	104.05	93.773	202.177
3.7975	104.059	93.7825	202.159
3.8	104.067	93.792	202.141
3.8025	104.076	93.8015	202.122
3.805	104.085	93.8111	202.104
3.8075	104.093	93.8207	202.086
3.81	104.102	93.8303	202.068
3.8125	104.11	93.8399	202.05
3.815	104.118	93.8496	202.032
3.8175	104.126	93.8593	202.014
3.82	104.135	93.869	201.996
3.8225	104.143	93.8787	201.979
3.825	104.151	93.8884	201.961
3.8275	104.159	93.8981	201.943
3.83	104.167	93.9079	201.926
3.8325	104.174	93.9177	201.908
3.835	104.182	93.9275	201.89
3.8375	104.19	93.9374	201.873
3.84	104.197	93.9472	201.855
3.8425	104.205	93.9571	201.838
3.845	104.213	93.967	201.821
3.8475	104.22	93.9769	201.803
3.85	104.227	93.9868	201.786
3.8525	104.235	93.9967	201.769
3.855	104.242	94.0067	201.751
3.8575	104.249	94.0167	201.734
3.86	104.256	94.0267	201.717
3.8625	104.263	94.0367	201.7
3.865	104.27	94.0467	201.683
3.8675	104.277	94.0568	201.666
3.87	104.284	94.0668	201.649
3.8725	104.291	94.0769	201.632
3.875	104.297	94.087	201.616
3.8775	104.304	94.0971	201.599
3.88	104.311	94.1073	201.582
3.8825	104.317	94.1174	201.565
3.885	104.324	94.1276	201.549
3.8875	104.33	94.1378	201.532
3.89	104.336	94.148	201.516
3.8925	104.343	94.1582	201.499
3.895	104.349	94.1684	201.483
3.8975	104.355	94.1786	201.466
3.9	104.361	94.1889	201.45
3.9025	104.367	94.1992	201.434
3.905	104.373	94.2095	201.417
3.9075	104.379	94.2198	201.401
3.91	104.385	94.2301	201.385
3.9125	104.391	94.2404	201.369
3.915	104.397	94.2508	201.353
3.9175	104.402	94.2612	201.337
3.92	104.408	94.2715	201.321
3.9225	104.413	94.2819	201.305
3.925	104.419	94.2923	201.289
3.9275	104.424	94.3028	201.273
3.93	104.43	94.3132	201.257
3.9325	104.435	94.3237	201.241
3.935	104.44	94.3341	201.226
3.9375	104.445	94.3446	201.21
3.94	104.451	94.3551	201.194
3.9425	104.456	94.3656	201.179
3.945	104.461	94.3761	201.163
3.9475	104.466	94.3866	201.148
3.95	104.471	94.3972	201.132
3.9525	104.475	94.4077	201.117
3.955	104.48	94.4183	201.102
3.9575	104.485	94.4289	201.086
3.96	104.49	94.4395	201.071
3.9625	104.494	94.4501	201.056
3.965	104.499	94.4607	201.041
3.9675	104.503	94.4713	201.025
3.97	104.508	94.482	201.01
3.9725	104.512	94.4926	200.995
3.975	104.516	94.5033	200.98
3.9775	104.521	94.514	200.965
3.98	104.525	94.5247	200.95
3.9825	104.529	94.5354	200.936
3.985	104.533	94.5461	200.921
3.9875	104.537	94.5568	200.906
3.99	104.541	94.5675	200.891
3.9925	104.545	94.5783	200.877
3.995	104.549	94.589	200.862
3.9975	104.553	94.5998	200.847
4	104.557	94.6106	200.833
4.0025	104.56	94.6213	200.818
4.005	104.564	94.6321	200.804
4.0075	104.568	94.6429	200.79
4.01	104.571	94.6537	200.775
4.0125	104.575	94.6646	200.761
4.015	104.578	94.6754	200.747
4.0175	104.581	94.6862	200.732
4.02	104.585	94.6971	200.718
4.0225	104.588	94.7079	200.704
4.025	104.591	94.7188	200.69
4.0275	104.594	94.7297	200.676
4.03	104.597	94.7406	200.662
4.0325	104.601	94.7515	200.648
4.035	104.604	94.7624	200.634
4.0375	104.606	94.7733	200.62
4.04	104.609	94.7842	200.606
4.0425	104.612	94.7951	200.593
4.045	104.615	94.8061	200.579
4.0475	104.618	94.817	200.565
4.05	104.62	94.828	200.552
4.0525	104.623	94.8389	200.538
4.055	104.626	94.8499	200.524
4.0575	104.628	94.8608	200.511
4.06	104.631	94.8718	200.497
4.0625	104.633	94.8828	200.484
4.065	104.636	94.8938	200.471
4.0675	104.638	94.9048	200.457
4.07	104.64	94.9158	200.444
4.0725	104.642	94.9268	200.431
4.075	104.645	94.9378	200.418
4.0775	104.647	94.9489	200.404
4.08	104.649	94.9599	200.391
4.0825	104.651	94.9709	200.378
4.085	104.653	94.982	200.365
4.0875	104.655	94.993	200.352
4.09	104.657	95.0041	200.339
4.0925	104.658	95.0152	200.326
4.095	104.66	95.0262	200.314
4.0975	104.662	95.0373	200.301
4.1	104.664	95.0484	200.288
4.1025	104.665	95.0595	200.275
4.105	104.667	95.0706	200.263
4.1075	104.668	95.0817	200.25
4.11	104.67	95.0928	200.237
4.1125	104.671	95.1039	200.225
4.115	104.673	95.115	200.212
4.1175	104.674	95.1261	200.2
4.12	104.675	95.1372	200.188
4.1225	104.677	95.1483	200.175
4.125	104.678	95.1594	200.163
4.1275	104.679	95.1706	200.151
4.13	104.68	95.1817	200.138
4.1325	104.681	95.1928	200.126
4.135	104.682	95.204	200.114
4.1375	104.683	95.2151	200.102
4.14	104.684	95.2263	200.09
4.1425	104.685	95.2374	200.078
4.145	104.686	95.2486	200.066
4.1475	104.686	95.2598	200.054
4.15	104.687	95.2709	200.042
4.1525	104.688	95.2821	200.03
4.155	104.689	95.2932	200.018
4.1575	104.689	95.3044	200.006
4.16	104.69	95.3156	199.995
4.1625	104.69	95.3268	199.983
4.165	104.691	95.3379	199.971
4.1675	104.691	95.3491	199.96
4.17	104.691	95.3603	199.948
4.1725	104.692	95.3715	199.937
4.175	104.692	95.3827	199.925
4.1775	104.692	95.3939	199.914
4.18	104.692	95.4051	199.902
4.1825	104.693	95.4163	199.891
4.185	104.693	95.4275	199.88
4.1875	104.693	95.4386	199.869
4.19	104.693	95.4498	199.857
4.1925	104.693	95.461	199.846
4.195	104.693	95.4722	199.835
4.1975	104.693	95.4834	199.824
4.2	104.692	95.4946	199.813
4.2025	104.692	95.5058	199.802
4.205	104.692	95.5171	199.791
4.2075	104.692	95.5283	199.78
4.21	104.691	95.5395	199.769
4.2125	104.691	95.5507	199.758
4.215	104.691	95.5619	199.747
4.2175	104.69	95.5731	199.737
4.22	104.69	95.5843	199.726
4.2225	104.689	95.5955	199.715
4.225	104.689	95.6067	199.705
4.2275	104.688	95.6179	199.694
4.23	104.687	95.6291	199.684
4.2325	104.687	95.6403	199.673
4.235	104.686	95.6515	199.663
4.2375	104.685	95.6627	199.652
4.24	104.684	95.6739	199.642
4.2425	104.683	95.6851	199.631
4.245	104.683	95.6963	199.621
4.2475	104.682	95.7075	199.611
4.25	104.681	95.7187	199.601
4.2525	104.68	95.7299	199.59
4.255	104.679	95.7411	199.58
4.2575	104.677	95.7523	199.57
4.26	104.676	95.7635	199.56
4.2625	104.675	95.7747	199.55
4.265	104.674	95.7859	199.54
4.2675	104.673	95.7971	199.53
4.27	104.671	95.8083	199.52
4.2725	104.67	95.8195	199.51
4.275	104.669	95.8307	199.501
4.2775	104.667	95.8419	199.491
4.28	104.666	95.853	199.481
4.2825	104.664	95.8642	199.471
4.285	104.663	95.8754	199.462
4.2875	104.661	95.8866	199.452
4.29	104.66	95.8978	199.443
4.2925	104.658	95.9089	199.433
4.295	104.656	95.9201	199.423
4.2975	104.655	95.9313	199.414
4.3	104.653	95.9424	199.405
4.3025	104.651	95.9536	199.395
4.305	104.649	95.9647	199.386
4.3075	104.648	95.9759	199.377
4.31	104.646	95.987	199.367
4.3125	104.644	95.9982	199.358
4.315	104.642	96.0093	199.349
4.3175	104.64	96.0205	199.34
4.32	104.638	96.0316	199.331
4.3225	104.636	96.0427	199.322
4.325	104.634	96.0539	199.313
4.3275	104.631	96.065	199.304
4.33	104.629	96.0761	199.295
4.3325	104.627	96.0872	199.286
4.335	104.625	96.0983	199.277
4.3375	104.623	96.1094	199.268
4.34	104.62	96.1206	199.259
4.3425	104.618	96.1317	199.25
4.345	104.615	96.1427	199.242
4.3475	104.613	96.1538	199.233
4.35	104.611	96.1649	199.224
4.3525	104.608	96.176	199.216
4.355	104.606	96.1871	199.207
4.3575	104.603	96.1982	199.199
4.36	104.6	96.2092	199.19
4.3625	104.598	96.2203	199.182
4.365	104.595	96.2313	199.173
4.3675	104.593	96.2424	199.165
4.37	104.59	96.2534	199.157
4.3725	104.587	96.2645	199.148
4.375	104.584	96.2755	199.14
4.3775	104.581	96.2866	199.132
4.38	104.579	96.2976	199.124
4.3825	104.576	96.3086	199.116
4.385	104.573	96.3196	199.108
4.3875	104.57	96.3306	199.099
4.39	104.567	96.3416	199.091
4.3925	104.564	96.3526	199.083
4.395	104.561	96.3636	199.076
4.3975	104.558	96.3746	199.068
4.4	104.555	96.3856	199.06
4.4025	104.552	96.3965	199.052
4.405	104.548	96.4075	199.044
4.4075	104.545	96.4185	199.036
4.41	104.542	96.4294	199.029
4.4125	104.539	96.4404	199.021
4.415	104.535	96.4513	199.013
4.4175	104.532	96.4622	199.006
4.42	104.529	96.4732	198.998
4.4225	104.525	96.4841	198.99
4.425	104.522	96.495	198.983
4.4275	104.519	96.5059	198.975
4.43	104.515	96.5168	198.968
4.4325	104.512	96.5277	198.961
4.435	104.508	96.5386	198.953
4.4375	104.505	96.5495	198.946
4.44	104.501	96.5603	198.939
4.4425	104.497	96.5712	198.931
4.445	104.494	96.582	198.924
4.4475	104.49	96.5929	198.917
4.45	104.486	96.6037	198.91
4.4525	104.483	96.6146	198.903
4.455	104.479	96.6254	198.896
4.4575	104.475	96.6362	198.889
4.46	104.471	96.647	198.882
4.4625	104.468	96.6578	198.875
4.465	104.464	96.6686	198.868
4.4675	104.46	96.6794	198.861
4.47	104.456	96.6902	198.854
4.4725	104.452	96.7009	198.847
4.475	104.448	96.7117	198.84
4.4775	104.444	96.7224	198.834
4.48	104.44	96.7332	198.827
4.4825	104.436	96.7439	198.82
4.485	104.432	96.7546	198.814
4.4875	104.428	96.7653	198.807
4.49	104.424	96.7761	198.8
4.4925	104.419	96.7868	198.794
4.495	104.415	96.7974	198.787
4.4975	104.411	96.8081	198.781
4.5	104.407	96.8188	198.774
4.5025	104.403	96.8295	198.768
4.505	104.398	96.8401	198.762
4.5075	104.394	96.8507	198.755
4.51	104.39	96.8614	198.749
4.5125	104.385	96.872	198.743
4.515	104.381	96.8826	198.737
4.5175	104.376	96.8932	198.73
4.52	104.372	96.9038	198.724
4.5225	104.368	96.9144	198.718
4.525	104.363	96.925	198.712
4.5275	104.359	96.9356	198.706
4.53	104.354	96.9461	198.7
4.5325	104.349	96.9567	198.694
4.535	104.345	96.9672	198.688
4.5375	104.34	96.9777	198.682
4.54	104.336	96.9882	198.676
4.5425	104.331	96.9988	198.67
4.545	104.326	97.0093	198.664
4.5475	104.322	97.0197	198.659
4.55	104.317	97.0302	198.653
4.5525	104.312	97.0407	198.647
4.555	104.307	97.0511	198.641
4.5575	104.303	97.0616	198.636
4.56	104.298	97.072	198.63
4.5625	104.293	97.0824	198.625
4.565	104.288	97.0929	198.619
4.5675	104.283	97.1033	198.613
4.57	104.278	97.1137	198.608
4.5725	104.273	97.124	198.603
4.575	104.268	97.1344	198.597
4.5775	104.264	97.1448	198.592
4.58	104.259	97.1551	198.586
4.5825	104.254	97.1655	198.581
4.585	104.248	97.1758	198.576
4.5875	104.243	97.1861	198.57
4.59	104.238	97.1964	198.565
4.5925	104.233	97.2067	198.56
4.595	104.228	97.217	198.555
4.5975	104.223	97.2272	198.55
4.6	104.218	97.2375	198.545
4.6025	104.213	97.2478	198.54
4.605	104.208	97.258	198.535
4.6075	104.202	97.2682	198.53
4.61	104.197	97.2784	198.525
4.6125	104.192	97.2886	198.52
4.615	104.187	97.2988	198.515
4.6175	104.181	97.309	198.51
4.62	104.176	97.3192	198.505
4.6225	104.171	97.3293	198.5
4.625	104.165	97.3395	198.495
4.6275	104.16	97.3496	198.491
4.63	104.154	97.3597	198.486
4.6325	104.149	97.3698	198.481
4.635	104.144	97.3799	198.477
4.6375	104.138	97.39	198.472
4.64	104.133	97.4001	198.467
4.6425	104.127	97.4101	198.463
4.645	104.122	97.4202	198.458
4.6475	104.116	97.4302	198.454
4.65	104.111	97.4402	198.449
4.6525	104.105	97.4502	198.445
4.655	104.099	97.4602	198.44
4.6575	104.094	97.4702	198.436
4.66	104.088	97.4802	198.432
4.6625	104.083	97.4901	198.427
4.665	104.077	97.5001	198.423
4.6675	104.071	97.51	198.419
4.67	104.066	97.5199	198.414
4.6725	104.06	97.5298	198.41
4.675	104.054	97.5397	198.406
4.6775	104.048	97.5496	198.402
4.68	104.043	97.5595	198.398
4.6825	104.037	97.5693	198.394
4.685	104.031	97.5792	198.39
4.6875	104.025	97.589	198.386
4.69	104.02	97.5988	198.382
4.6925	104.014	97.6086	198.378
4.695	104.008	97.6184	198.374
4.6975	104.002	97.6282	198.37
4.7	103.996	97.6379	198.366
4.7025	103.99	97.6477	198.362
4.705	103.984	97.6574	198.358
4.7075	103.978	97.6671	198.355
4.71	103.972	97.6768	198.351
4.7125	103.966	97.6865	198.347
4.715	103.96	97.6962	198.343
4.7175	103.954	97.7059	198.34
4.72	103.948	97.7155	198.336
4.7225	103.942	97.7252	198.332
4.725	103.936	97.7348	198.329
4.7275	103.93	97.7444	198.325
4.73	103.924	97.754	198.322
4.7325	103.918	97.7636	198.318
4.735	103.912	97.7731	198.315
4.7375	103.906	97.7827	198.311
4.74	103.9	97.7922	198.308
4.7425	103.894	97.8018	198.304
4.745	103.888	97.8113	198.301
4.7475	103.881	97.8208	198.298
4.75	103.875	97.8303	198.294
4.7525	103.869	97.8397	198.291
4.755	103.863	97.8492	198.288
4.7575	103.857	97.8586	198.285
4.76	103.85	97.8681	198.282
4.7625	103.844	97.8775	198.278
4.765	103.838	97.8869	198.275
4.7675	103.832	97.8963	198.272
4.77	103.825	97.9056	198.269
4.7725	103.819	97.915	198.266
4.775	103.813	97.9243	198.263
4.7775	103.806	97.9337	198.26
4.78	103.8	97.943	198.257
4.7825	103.794	97.9523	198.254
4.785	103.787	97.9615	198.251
4.7875	103.781	97.9708	198.248
4.79	103.775	97.9801	198.245
4.7925	103.768	97.9893	198.242
4.795	103.762	97.9985	198.24
4.7975	103.755	98.0077	198.237
4.8	103.749	98.0169	198.234
4.8025	103.743	98.0261	198.231
4.805	103.736	98.0353	198.229
4.8075	103.73	98.0444	198.226
4.81	103.723	98.0536	198.223
4.8125	103.717	98.0627	198.221
4.815	103.71	98.0718	198.218
4.8175	103.704	98.0809	198.216
4.82	103.697	98.0899	198.213
4.8225	103.691	98.099	198.21
4.825	103.684	98.108	198.208
4.8275	103.677	98.1171	198.205
4.83	103.671	98.1261	198.203
4.8325	103.664	98.1351	198.201
4.835	103.658	98.1441	198.198
4.8375	103.651	98.153	198.196
4.84	103.645	98.162	198.193
4.8425	103.638	98.1709	198.191
4.845	103.631	98.1798	198.189
4.8475	103.625	98.1887	198.187
4.85	103.618	98.1976	198.184
4.8525	103.611	98.2065	198.182
4.855	103.605	98.2154	198.18
4.8575	103.598	98.2242	198.178
4.86	103.591	98.233	198.176
4.8625	103.585	98.2419	198.173
4.865	103.578	98.2507	198.171
4.8675	103.571	98.2594	198.169
4.87	103.565	98.2682	198.167
4.8725	103.558	98.2769	198.165
4.875	103.551	98.2857	198.163
4.8775	103.544	98.2944	198.161
4.88	103.538	98.3031	198.159
4.8825	103.531	98.3118	198.157
4.885	103.524	98.3205	198.155
4.8875	103.517	98.3291	198.154
4.89	103.511	98.3377	198.152
4.8925	103.504	98.3464	198.15
4.895	103.497	98.355	198.148
4.8975	103.49	98.3636	198.146
4.9	103.483	98.3721	198.144
4.9025	103.477	98.3807	198.143
4.905	103.47	98.3892	198.141
4.9075	103.463	98.3978	198.139
4.91	103.456	98.4063	198.138
4.9125	103.449	98.4148	198.136
4.915	103.442	98.4233	198.134
4.9175	103.435	98.4317	198.133
4.92	103.429	98.4402	198.131
4.9225	103.422	98.4486	198.13
4.925	103.415	98.457	198.128
4.9275	103.408	98.4654	198.127
4.93	103.401	98.4738	198.125
4.9325	103.394	98.4821	198.124
4.935	103.387	98.4905	198.122
4.9375	103.38	98.4988	198.121
4.94	103.373	98.5071	198.119
4.9425	103.366	98.5154	198.118
4.945	103.36	98.5237	198.117
4.9475	103.353	98.532	198.115
4.95	103.346	98.5402	198.114
4.9525	103.339	98.5485	198.113
4.955	103.332	98.5567	198.112
4.9575	103.325	98.5649	198.11
4.96	103.318	98.5731	198.109
4.9625	103.311	98.5812	198.108
4.965	103.304	98.5894	198.107
4.9675	103.297	98.5975	198.106
4.97	103.29	98.6057	198.104
4.9725	103.283	98.6138	198.103
4.975	103.276	98.6218	198.102
4.9775	103.269	98.6299	198.101
4.98	103.262	98.638	198.1
4.9825	103.255	98.646	198.099
4.985	103.248	98.654	198.098
4.9875	103.241	98.662	198.097
4.99	103.234	98.67	198.096
4.9925	103.227	98.678	198.095
4.995	103.22	98.6859	198.094
4.9975	103.213	98.6939	198.093
5	103.206	98.7018	198.093
5.0025	103.199	98.7097	198.092
5.005	103.192	98.7176	198.091
5.0075	103.184	98.7254	198.09
5.01	103.177	98.7333	198.089
5.0125	103.17	98.7411	198.089
5.015	103.163	98.7489	198.088
5.0175	103.156	98.7567	198.087
5.02	103.149	98.7645	198.086
5.0225	103.142	98.7723	198.086
5.025	103.135	98.78	198.085
5.0275	103.128	98.7878	198.084
5.03	103.121	98.7955	198.084
5.0325	103.114	98.8032	198.083
5.035	103.107	98.8109	198.083
5.0375	103.099	98.8185	198.082
5.04	103.092	98.8262	198.081
5.0425	103.085	98.8338	198.081
5.045	103.078	98.8414	198.08
5.0475	103.071	98.849	198.08
5.05	103.064	98.8566	198.079
5.0525	103.057	98.8642	198.079
5.055	103.05	98.8717	198.079
5.0575	103.043	98.8792	198.078
5.06	103.035	98.8868	198.078
5.0625	103.028	98.8943	198.077
5.065	103.021	98.9017	198.077
5.0675	103.014	98.9092	198.077
5.07	103.007	98.9166	198.076
5.0725	103	98.9241	198.076
5.075	102.993	98.9315	198.076
5.0775	102.986	98.9389	198.076
5.08	102.978	98.9462	198.075
5.0825	102.971	98.9536	198.075
5.085	102.964	98.9609	198.075
5.0875	102.957	98.9683	198.075
5.09	102.95	98.9756	198.075
5.0925	102.943	98.9829	198.074
5.095	102.936	98.9901	198.074
5.0975	102.928	98.9974	198.074
5.1	102.921	99.0046	198.074
5.1025	102.914	99.0119	198.074
5.105	102.907	99.0191	198.074
5.1075	102.9	99.0263	198.074
5.11	102.893	99.0334	198.074
5.1125	102.885	99.0406	198.074
5.115	102.878	99.0477	198.074
5.1175	102.871	99.0548	198.074
5.12	102.864	99.0619	198.074
5.1225	102.857	99.069	198.074
5.125	102.85	99.0761	198.074
5.1275	102.843	99.0831	198.074
5.13	102.835	99.0902	198.074
5.1325	102.828	99.0972	198.075
5.135	102.821	99.1042	198.075
5.1375	102.814	99.1112	198.075
5.14	102.807	99.1181	198.075
5.1425	102.8	99.1251	198.075
5.145	102.792	99.132	198.076
5.1475	102.785	99.1389	198.076
5.15	102.778	99.1458	198.076
5.1525	102.771	99.1527	198.076
5.155	102.764	99.1595	198.077
5.1575	102.757	99.1664	198.077
5.16	102.75	99.1732	198.077
5.1625	102.742	99.18	198.078
5.165	102.735	99.1868	198.078
5.1675	102.728	99.1936	198.078
5.17	102.721	99.2003	198.079
5.1725	102.714	99.2071	198.079
5.175	102.707	99.2138	198.08
5.1775	102.699	99.2205	198.08
5.18	102.692	99.2272	198.08
5.1825	102.685	99.2339	198.081
5.185	102.678	99.2405	198.081
5.1875	102.671	99.2472	198.082
5.19	102.664	99.2538	198.082
5.1925	102.657	99.2604	198.083
5.195	102.649	99.267	198.084
5.1975	102.642	99.2735	198.084
5.2	102.635	99.2801	198.085
5.2025	102.628	99.2866	198.085
5.205	102.621	99.2931	198.086
5.2075	102.614	99.2996	198.087
5.21	102.607	99.3061	198.087
5.2125	102.6	99.3126	198.088
5.215	102.592	99.319	198.089
5.2175	102.585	99.3254	198.089
5.22	102.578	99.3318	198.09
5.2225	102.571	99.3382	198.091
5.225	102.564	99.3446	198.091
5.2275	102.557	99.351	198.092
5.23	102.55	99.3573	198.093
5.2325	102.543	99.3636	198.094
5.235	102.536	99.3699	198.095
5.2375	102.528	99.3762	198.095
5.24	102.521	99.3825	198.096
5.2425	102.514	99.3888	198.097
5.245	102.507	99.395	198.098
5.2475	102.5	99.4012	198.099
5.25	102.493	99.4074	198.1
5.2525	102.486	99.4136	198.101
5.255	102.479	99.4198	198.101
5.2575	102.472	99.4259	198.102
5.26	102.465	99.4321	198.103
5.2625	102.458	99.4382	198.104
5.265	102.45	99.4443	198.105
5.2675	102.443	99.4504	198.106
5.27	102.436	99.4564	198.107
5.2725	102.429	99.4625	198.108
5.275	102.422	99.4685	198.109
5.2775	102.415	99.4745	198.11
5.28	102.408	99.4805	198.111
5.2825	102.401	99.4865	198.112
5.285	102.394	99.4925	198.114
5.2875	102.387	99.4984	198.115
5.29	102.38	99.5044	198.116
5.2925	102.373	99.5103	198.117
5.295	102.366	99.5162	198.118
5.2975	102.359	99.522	198.119
5.3	102.352	99.5279	198.12
5.3025	102.345	99.5337	198.122
5.305	102.338	99.5396	198.123
5.3075	102.331	99.5454	198.124
5.31	102.324	99.5512	198.125
5.3125	102.317	99.5569	198.126
5.315	102.31	99.5627	198.128
5.3175	102.303	99.5684	198.129
5.32	102.296	99.5742	198.13
5.3225	102.289	99.5799	198.131
5.325	102.282	99.5856	198.133
5.3275	102.275	99.5912	198.134
5.33	102.268	99.5969	198.135
5.3325	102.261	99.6025	198.137
5.335	102.254	99.6081	198.138
5.3375	102.247	99.6138	198.139
5.34	102.24	99.6193	198.141
5.3425	102.233	99.6249	198.142
5.345	102.226	99.6305	198.143
5.3475	102.219	99.636	198.145
5.35	102.212	99.6415	198.146
5.3525	102.205	99.647	198.148
5.355	102.198	99.6525	198.149
5.3575	102.191	99.658	198.151
5.36	102.185	99.6634	198.152
5.3625	102.178	99.6689	198.154
5.365	102.171	99.6743	198.155
5.3675	102.164	99.6797	198.157
5.37	102.157	99.6851	198.158
5.3725	102.15	99.6904	198.16
5.375	102.143	99.6958	198.161
5.3775	102.136	99.7011	198.163
5.38	102.129	99.7064	198.164
5.3825	102.123	99.7117	198.166
5.385	102.116	99.717	198.167
5.3875	102.109	99.7223	198.169
5.39	102.102	99.7275	198.171
5.3925	102.095	99.7328	198.172
5.395	102.088	99.738	198.174
5.3975	102.081	99.7432	198.175
5.4	102.075	99.7484	198.177
5.4025	102.068	99.7535	198.179
5.405	102.061	99.7587	198.18
5.4075	102.054	99.7638	198.182
5.41	102.047	99.7689	198.184
5.4125	102.041	99.774	198.185
5.415	102.034	99.7791	198.187
5.4175	102.027	99.7842	198.189
5.42	102.02	99.7892	198.191
5.4225	102.013	99.7942	198.192
5.425	102.007	99.7993	198.194
5.4275	102	99.8042	198.196
5.43	101.993	99.8092	198.198
5.4325	101.986	99.8142	198.199
5.435	101.98	99.8191	198.201
5.4375	101.973	99.8241	198.203
5.44	101.966	99.829	198.205
5.4425	101.96	99.8339	198.207
5.445	101.953	99.8388	198.208
5.4475	101.946	99.8436	198.21
5.45	101.939	99.8485	198.212
5.4525	101.933	99.8533	198.214
5.455	101.926	99.8581	198.216
5.4575	101.919	99.8629	198.218
5.46	101.913	99.8677	198.22
5.4625	101.906	99.8725	198.222
5.465	101.899	99.8772	198.223
5.4675	101.893	99.882	198.225
5.47	101.886	99.8867	198.227
5.4725	101.879	99.8914	198.229
5.475	101.873	99.8961	198.231
5.4775	101.866	99.9007	198.233
5.48	101.86	99.9054	198.235
5.4825	101.853	99.91	198.237
5.485	101.846	99.9147	198.239
5.4875	101.84	99.9193	198.241
5.49	101.833	99.9238	198.243
5.4925	101.827	99.9284	198.245
5.495	101.82	99.933	198.247
5.4975	101.813	99.9375	198.249
5.5	101.807	99.942	198.251
5.5025	101.8	99.9465	198.253
5.505	101.794	99.951	198.255
5.5075	101.787	99.9555	198.257
5.51	101.781	99.96	198.259
5.5125	101.774	99.9644	198.261
5.515	101.768	99.9688	198.264
5.5175	101.761	99.9732	198.266
5.52	101.755	99.9776	198.268
5.5225	101.748	99.982	198.27
5.525	101.742	99.9864	198.272
5.5275	101.735	99.9907	198.274
5.53	101.729	99.9951	198.276
5.5325	101.722	99.9994	198.278
5.535	101.716	100.004	198.281
5.5375	101.709	100.008	198.283
5.54	101.703	100.012	198.285
5.5425	101.697	100.016	198.287
5.545	101.69	100.021	198.289
5.5475	101.684	100.025	198.291
5.55	101.677	100.029	198.294
5.5525	101.671	100.033	198.296
5.555	101.664	100.037	198.298
5.5575	101.658	100.042	198.3
5.56	101.652	100.046	198.303
5.5625	101.645	100.05	198.305
5.565	101.639	100.054	198.307
5.5675	101.633	100.058	198.309
5.57	101.626	100.062	198.312
5.5725	101.62	100.066	198.314
5.575	101.614	100.07	198.316
5.5775	101.607	100.074	198.318
5.58	101.601	100.078	198.321
5.5825	101.595	100.082	198.323
5.585	101.588	100.086	198.325
5.5875	101.582	100.09	198.328
5.59	101.576	100.094	198.33
5.5925	101.57	100.098	198.332
5.595	101.563	100.102	198.335
5.5975	101.557	100.106	198.337
5.6	101.551	100.11	198.339
5.6025	101.545	100.114	198.342
5.605	101.538	100.118	198.344
5.6075	101.532	100.121	198.346
5.61	101.526	100.125	198.349
5.6125	101.52	100.129	198.351
5.615	101.514	100.133	198.353
5.6175	101.508	100.137	198.356
5.62	101.501	100.14	198.358
5.6225	101.495	100.144	198.361
5.625	101.489	100.148	198.363
5.6275	101.483	100.152	198.365
5.63	101.477	100.155	198.368
5.6325	101.471	100.159	198.37
5.635	101.465	100.163	198.373
5.6375	101.458	100.166	198.375
5.64	101.452	100.17	198.378
5.6425	101.446	100.174	198.38
5.645	101.44	100.177	198.383
5.6475	101.434	100.181	198.385
5.65	101.428	100.184	198.388
5.6525	101.422	100.188	198.39
5.655	101.416	100.192	198.392
5.6575	101.41	100.195	198.395
5.66	101.404	100.199	198.397
5.6625	101.398	100.202	198.4
5.665	101.392	100.206	198.402
5.6675	101.386	100.209	198.405
5.67	101.38	100.213	198.408
5.6725	101.374	100.216	198.41
5.675	101.368	100.219	198.413
5.6775	101.362	100.223	198.415
5.68	101.356	100.226	198.418
5.6825	101.35	100.23	198.42
5.685	101.344	100.233	198.423
5.6875	101.338	100.236	198.425
5.69	101.332	100.24	198.428
5.6925	101.326	100.243	198.43
5.695	101.321	100.246	198.433
5.6975	101.315	100.25	198.436
5.7	101.309	100.253	198.438
5.7025	101.303	100.256	198.441
5.705	101.297	100.26	198.443
5.7075	101.291	100.263	198.446
5.71	101.285	100.266	198.449
5.7125	101.28	100.269	198.451
5.715	101.274	100.272	198.454
5.7175	101.268	100.276	198.456
5.72	101.262	100.279	198.459
5.7225	101.256	100.282	198.462
5.725	101.251	100.285	198.464
5.7275	101.245	100.288	198.467
5.73	101.239	100.291	198.47
5.7325	101.233	100.294	198.472
5.735	101.228	100.297	198.475
5.7375	101.222	100.301	198.477
5.74	101.216	100.304	198.48
5.7425	101.211	100.307	198.483
5.745	101.205	100.31	198.485
5.7475	101.199	100.313	198.488
5.75	101.193	100.316	198.491
5.7525	101.188	100.319	198.493
5.755	101.182	100.322	198.496
5.7575	101.177	100.325	198.499
5.76	101.171	100.328	198.502
5.7625	101.165	100.33	198.504
5.765	101.16	100.333	198.507
5.7675	101.154	100.336	198.51
5.77	101.148	100.339	198.512
5.7725	101.143	100.342	198.515
5.775	101.137	100.345	198.518
5.7775	101.132	100.348	198.52
5.78	101.126	100.351	198.523
5.7825	101.121	100.353	198.526
5.785	101.115	100.356	198.529
5.7875	101.11	100.359	198.531
5.79	101.104	100.362	198.534
5.7925	101.099	100.365	198.537
5.795	101.093	100.367	198.54
5.7975	101.088	100.37	198.542
5.8	101.082	100.373	198.545
5.8025	101.077	100.375	198.548
5.805	101.071	100.378	198.551
5.8075	101.066	100.381	198.553
5.81	101.06	100.384	198.556
5.8125	101.055	100.386	198.559
5.815	101.05	100.389	198.562
5.8175	101.044	100.391	198.564
5.82	101.039	100.394	198.567
5.8225	101.033	100.397	198.57
5.825	101.028	100.399	198.573
5.8275	101.023	100.402	198.576
5.83	101.017	100.404	198.578
5.8325	101.012	100.407	198.581
5.835	101.007	100.409	198.584
5.8375	101.001	100.412	198.587
5.84	100.996	100.414	198.589
5.8425	100.991	100.417	198.592
5.845	100.985	100.419	198.595
5.8475	100.98	100.422	198.598
5.85	100.975	100.424	198.601
5.8525	100.97	100.427	198.604
5.855	100.964	100.429	198.606
5.8575	100.959	100.432	198.609
5.86	100.954	100.434	198.612
5.8625	100.949	100.436	198.615
5.865	100.944	100.439	198.618
5.8675	100.938	100.441	198.62
5.87	100.933	100.444	198.623
5.8725	100.928	100.446	198.626
5.875	100.923	100.448	198.629
5.8775	100.918	100.451	198.632
5.88	100.913	100.453	198.635
5.8825	100.907	100.455	198.637
5.885	100.902	100.457	198.64
5.8875	100.897	100.46	198.643
5.89	100.892	100.462	198.646
5.8925	100.887	100.464	198.649
5.895	100.882	100.466	198.652
5.8975	100.877	100.469	198.655
5.9	100.872	100.471	198.657
5.9025	100.867	100.473	198.66
5.905	100.862	100.475	198.663
5.9075	100.857	100.477	198.666
5.91	100.852	100.479	198.669
5.9125	100.847	100.482	198.672
5.915	100.842	100.484	198.675
5.9175	100.837	100.486	198.677
5.92	100.832	100.488	198.68
5.9225	100.827	100.49	198.683
5.925	100.822	100.492	198.686
5.9275	100.817	100.494	198.689
5.93	100.812	100.496	198.692
5.9325	100.807	100.498	198.695
5.935	100.802	100.5	198.698
5.9375	100.797	100.502	198.7
5.94	100.793	100.504	198.703
5.9425	100.788	100.506	198.706
5.945	100.783	100.508	198.709
5.9475	100.778	100.51	198.712
5.95	100.773	100.512	198.715
5.9525	100.768	100.514	198.718
5.955	100.763	100.516	198.721
5.9575	100.759	100.518	198.723
5.96	100.754	100.52	198.726
5.9625	100.749	100.522	198.729
5.965	100.744	100.523	198.732
5.9675	100.74	100.525	198.735
5.97	100.735	100.527	198.738
5.9725	100.73	100.529	198.741
5.975	100.725	100.531	198.744
5.9775	100.721	100.533	198.747
5.98	100.716	100.535	198.75
5.9825	100.711	100.536	198.752
5.985	100.707	100.538	198.755
5.9875	100.702	100.54	198.758
5.99	100.697	100.542	198.761
5.9925	100.693	100.543	198.764
5.995	100.688	100.545	198.767
5.9975	100.683	100.547	198.77
6	100.679	100.549	198.773
6.0025	100.674	100.55	198.776
6.005	100.67	100.552	198.779
6.0075	100.665	100.554	198.781
6.01	100.66	100.555	198.784
6.0125	100.656	100.557	198.787
6.015	100.651	100.559	198.79
6.0175	100.647	100.56	198.793
6.02	100.642	100.562	198.796
6.0225	100.638	100.563	198.799
6.025	100.633	100.565	198.802
6.0275	100.629	100.567	198.805
6.03	100.624	100.568	198.808
6.0325	100.62	100.57	198.811
6.035	100.615	100.571	198.813
6.0375	100.611	100.573	198.816
6.04	100.606	100.574	198.819
6.0425	100.602	100.576	198.822
6.045	100.597	100.577	198.825
6.0475	100.593	100.579	198.828
6.05	100.589	100.58	198.831
6.0525	100.584	100.582	198.834
6.055	100.58	100.583	198.837
6.0575	100.576	100.585	198.84
6.06	100.571	100.586	198.843
6.0625	100.567	100.588	198.846
6.065	100.563	100.589	198.848
6.0675	100.558	100.59	198.851
6.07	100.554	100.592	198.854
6.0725	100.55	100.593	198.857
6.075	100.545	100.595	198.86
6.0775	100.541	100.596	198.863
6.08	100.537	100.597	198.866
6.0825	100.532	100.599	198.869
6.085	100.528	100.6	198.872
6.0875	100.524	100.601	198.875
6.09	100.52	100.603	198.878
6.0925	100.516	100.604	198.88
6.095	100.511	100.605	198.883
6.0975	100.507	100.607	198.886
6.1	100.503	100.608	198.889
6.1025	100.499	100.609	198.892
6.105	100.495	100.61	198.895
6.1075	100.491	100.612	198.898
6.11	100.486	100.613	198.901
6.1125	100.482	100.614	198.904
6.115	100.478	100.615	198.907
6.1175	100.474	100.616	198.91
6.12	100.47	100.618	198.912
6.1225	100.466	100.619	198.915
6.125	100.462	100.62	198.918
6.1275	100.458	100.621	198.921
6.13	100.454	100.622	198.924
6.1325	100.45	100.623	198.927
6.135	100.446	100.625	198.93
6.1375	100.442	100.626	198.933
6.14	100.438	100.627	198.936
6.1425	100.434	100.628	198.939
6.145	100.43	100.629	198.941
6.1475	100.426	100.63	198.944
6.15	100.422	100.631	198.947
6.1525	100.418	100.632	198.95
6.155	100.414	100.633	198.953
6.1575	100.41	100.634	198.956
6.16	100.406	100.635	198.959
6.1625	100.402	100.636	198.962
6.165	100.398	100.637	198.965
6.1675	100.394	100.638	198.967
6.17	100.39	100.639	198.97
6.1725	100.387	100.64	198.973
6.175	100.383	100.641	198.976
6.1775	100.379	100.642	198.979
6.18	100.375	100.643	198.982
6.1825	100.371	100.644	198.985
6.185	100.367	100.645	198.988
6.1875	100.364	100.646	198.991
6.19	100.36	100.647	198.993
6.1925	100.356	100.648	198.996
6.195	100.352	100.649	198.999
6.1975	100.349	100.649	199.002
6.2	100.345	100.65	199.005
6.2025	100.341	100.651	199.008
6.205	100.337	100.652	199.011
6.2075	100.334	100.653	199.013
6.21	100.33	100.654	199.016
6.2125	100.326	100.655	199.019
6.215	100.323	100.655	199.022
6.2175	100.319	100.656	199.025
6.22	100.315	100.657	199.028
6.2225	100.312	100.658	199.031
6.225	100.308	100.659	199.033
6.2275	100.304	100.659	199.036
6.23	100.301	100.66	199.039
6.2325	100.297	100.661	199.042
6.235	100.294	100.662	199.045
6.2375	100.29	100.662	199.048
6.24	100.286	100.663	199.051
6.2425	100.283	100.664	199.053
6.245	100.279	100.664	199.056
6.2475	100.276	100.665	199.059
6.25	100.272	100.666	199.062
6.2525	100.269	100.667	199.065
6.255	100.265	100.667	199.068
6.2575	100.262	100.668	199.07
6.26	100.258	100.668	199.073
6.2625	100.255	100.669	199.076
6.265	100.251	100.67	199.079
6.2675	100.248	100.67	199.082
6.27	100.244	100.671	199.085
6.2725	100.241	100.672	199.087
6.275	100.238	100.672	199.09
6.2775	100.234	100.673	199.093
6.28	100.231	100.673	199.096
6.2825	100.227	100.674	199.099
6.285	100.224	100.675	199.101
6.2875	100.221	100.675	199.104
6.29	100.217	100.676	199.107
6.2925	100.214	100.676	199.11
6.295	100.211	100.677	199.113
6.2975	100.207	100.677	199.116
6.3	100.204	100.678	199.118
6.3025	100.201	100.678	199.121
6.305	100.197	100.679	199.124
6.3075	100.194	100.679	199.127
6.31	100.191	100.68	199.129
6.3125	100.187	100.68	199.132
6.315	100.184	100.681	199.135
6.3175	100.181	100.681	199.138
6.32	100.178	100.682	199.141
6.3225	100.175	100.682	199.143
6.325	100.171	100.683	199.146
6.3275	100.168	100.683	199.149
6.33	100.165	100.683	199.152
6.3325	100.162	100.684	199.154
6.335	100.159	100.684	199.157
6.3375	100.155	100.685	199.16
6.34	100.152	100.685	199.163
6.3425	100.149	100.685	199.166
6.345	100.146	100.686	199.168
6.3475	100.143	100.686	199.171
6.35	100.14	100.686	199.174
6.3525	100.137	100.687	199.177
6.355	100.134	100.687	199.179
6.3575	100.131	100.687	199.182
6.36	100.127	100.688	199.185
6.3625	100.124	100.688	199.187
6.365	100.121	100.688	199.19
6.3675	100.118	100.689	199.193
6.37	100.115	100.689	199.196
6.3725	100.112	100.689	199.198
6.375	100.109	100.69	199.201
6.3775	100.106	100.69	199.204
6.38	100.103	100.69	199.207
6.3825	100.1	100.69	199.209
6.385	100.097	100.691	199.212
6.3875	100.094	100.691	199.215
6.39	100.092	100.691	199.217
6.3925	100.089	100.691	199.22
6.395	100.086	100.692	199.223
6.3975	100.083	100.692	199.226
6.4	100.08	100.692	199.228
6.4025	100.077	100.692	199.231
6.405	100.074	100.692	199.234
6.4075	100.071	100.693	199.236
6.41	100.068	100.693	199.239
6.4125	100.066	100.693	199.242
6.415	100.063	100.693	199.244
6.4175	100.06	100.693	199.247
6.42	100.057	100.693	199.25
6.4225	100.054	100.693	199.252
6.425	100.051	100.694	199.255
6.4275	100.049	100.694	199.258
6.43	100.046	100.694	199.26
6.4325	100.043	100.694	199.263
6.435	100.04	100.694	199.266
6.4375	100.038	100.694	199.268
6.44	100.035	100.694	199.271
6.4425	100.032	100.694	199.274
6.445	100.029	100.694	199.276
6.4475	100.027	100.694	199.279
6.45	100.024	100.695	199.282
6.4525	100.021	100.695	199.284
6.455	100.019	100.695	199.287
6.4575	100.016	100.695	199.289
6.46	100.013	100.695	199.292
6.4625	100.011	100.695	199.295
6.465	100.008	100.695	199.297
6.4675	100.005	100.695	199.3
6.47	100.003	100.695	199.302
6.4725	100	100.695	199.305
6.475	99.9975	100.695	199.308
6.4775	99.9949	100.695	199.31
6.48	99.9923	100.695	199.313
6.4825	99.9898	100.695	199.315
6.485	99.9872	100.695	199.318
6.4875	99.9846	100.695	199.321
6.49	99.9821	100.695	199.323
6.4925	99.9796	100.695	199.326
6.495	99.977	100.695	199.328
6.4975	99.9745	100.694	199.331
6.5	99.972	100.694	199.334
6.5025	99.9695	100.694	199.336
6.505	99.9671	100.694	199.339
6.5075	99.9646	100.694	199.341
6.51	99.9621	100.694	199.344
6.5125	99.9597	100.694	199.346
6.515	99.9572	100.694	199.349
6.5175	99.9548	100.694	199.351
6.52	99.9523	100.694	199.354
6.5225	99.9499	100.694	199.357
6.525	99.9475	100.693	199.359
6.5275	99.9451	100.693	199.362
6.53	99.9427	100.693	199.364
6.5325	99.9404	100.693	199.367
6.535	99.938	100.693	199.369
6.5375	99.9356	100.693	199.372
6.54	99.9333	100.693	199.374
6.5425	99.9309	100.692	199.377
6.545	99.9286	100.692	199.379
6.5475	99.9263	100.692	199.382
6.55	99.924	100.692	199.384
6.5525	99.9217	100.692	199.387
6.555	99.9194	100.691	199.389
6.5575	99.9171	100.691	199.392
6.56	99.9148	100.691	199.394
6.5625	99.9126	100.691	199.397
6.565	99.9103	100.691	199.399
6.5675	99.9081	100.69	199.402
6.57	99.9058	100.69	199.404
6.5725	99.9036	100.69	199.407
6.575	99.9014	100.69	199.409
6.5775	99.8992	100.689	199.412
6.58	99.897	100.689	199.414
6.5825	99.8948	100.689	199.416
6.585	99.8926	100.689	199.419
6.5875	99.8904	100.688	199.421
6.59	99.8882	100.688	199.424
6.5925	99.8861	100.688	199.426
6.595	99.8839	100.687	199.429
6.5975	99.8818	100.687	199.431
6.6	99.8797	100.687	199.433
6.6025	99.8776	100.687	199.436
6.605	99.8755	100.686	199.438
6.6075	99.8734	100.686	199.441
6.61	99.8713	100.686	199.443
6.6125	99.8692	100.685	199.446
6.615	99.8671	100.685	199.448
6.6175	99.865	100.685	199.45
6.62	99.863	100.684	199.453
6.6225	99.861	100.684	199.455
6.625	99.8589	100.684	199.458
6.6275	99.8569	100.683	199.46
6.63	99.8549	100.683	199.462
6.6325	99.8529	100.682	199.465
6.635	99.8509	100.682	199.467
6.6375	99.8489	100.682	199.469
6.64	99.8469	100.681	199.472
6.6425	99.8449	100.681	199.474
6.645	99.8429	100.681	199.477
6.6475	99.841	100.68	199.479
6.65	99.839	100.68	199.481
6.6525	99.8371	100.679	199.484
6.655	99.8352	100.679	199.486
6.6575	99.8333	100.678	199.488
6.66	99.8313	100.678	199.491
6.6625	99.8294	100.678	199.493
6.665	99.8275	100.677	199.495
6.6675	99.8257	100.677	199.498
6.67	99.8238	100.676	199.5
6.6725	99.8219	100.676	199.502
6.675	99.8201	100.675	199.505
6.6775	99.8182	100.675	199.507
6.68	99.8164	100.675	199.509
6.6825	99.8145	100.674	199.511
6.685	99.8127	100.674	199.514
6.6875	99.8109	100.673	199.516
6.69	99.8091	100.673	199.518
6.6925	99.8073	100.672	199.521
6.695	99.8055	100.672	199.523
6.6975	99.8037	100.671	199.525
6.7	99.8019	100.671	199.527
6.7025	99.8002	100.67	199.53
6.705	99.7984	100.67	199.532
6.7075	99.7967	100.669	199.534
6.71	99.7949	100.669	199.536
6.7125	99.7932	100.668	199.539
6.715	99.7915	100.668	199.541
6.7175	99.7898	100.667	199.543
6.72	99.7881	100.667	199.545
6.7225	99.7864	100.666	199.548
6.725	99.7847	100.665	199.55
6.7275	99.783	100.665	199.552
6.73	99.7813	100.664	199.554
6.7325	99.7797	100.664	199.557
6.735	99.778	100.663	199.559
6.7375	99.7764	100.663	199.561
6.74	99.7747	100.662	199.563
6.7425	99.7731	100.662	199.565
6.745	99.7715	100.661	199.568
6.7475	99.7698	100.66	199.57
6.75	99.7682	100.66	199.572
6.7525	99.7666	100.659	199.574
6.755	99.7651	100.659	199.576
6.7575	99.7635	100.658	199.578
6.76	99.7619	100.657	199.581
6.7625	99.7603	100.657	199.583
6.765	99.7588	100.656	199.585
6.7675	99.7572	100.656	199.587
6.77	99.7557	100.655	199.589
6.7725	99.7542	100.654	199.591
6.775	99.7526	100.654	199.594
6.7775	99.7511	100.653	199.596
6.78	99.7496	100.653	199.598
6.7825	99.7481	100.652	199.6
6.785	99.7466	100.651	199.602
6.7875	99.7451	100.651	199.604
6.79	99.7437	100.65	199.606
6.7925	99.7422	100.649	199.608
6.795	99.7407	100.649	199.611
6.7975	99.7393	100.648	199.613
6.8	99.7378	100.647	199.615
6.8025	99.7364	100.647	199.617
6.805	99.735	100.646	199.619
6.8075	99.7335	100.645	199.621
6.81	99.7321	100.645	199.623
6.8125	99.7307	100.644	199.625
6.815	99.7293	100.643	199.627
6.8175	99.7279	100.643	199.629
6.82	99.7266	100.642	199.631
6.8225	99.7252	100.641	199.633
6.825	99.7238	100.641	199.636
6.8275	99.7225	100.64	199.638
6.83	99.7211	100.639	199.64
6.8325	99.7198	100.639	199.642
6.835	99.7184	100.638	199.644
6.8375	99.7171	100.637	199.646
6.84	99.7158	100.636	199.648
6.8425	99.7145	100.636	199.65
6.845	99.7132	100.635	199.652
6.8475	99.7119	100.634	199.654
6.85	99.7106	100.634	199.656
6.8525	99.7093	100.633	199.658
6.855	99.708	100.632	199.66
6.8575	99.7068	100.631	199.662
6.86	99.7055	100.631	199.664
6.8625	99.7042	100.63	199.666
6.865	99.703	100.629	199.668
6.8675	99.7018	100.628	199.67
6.87	99.7005	100.628	199.672
6.8725	99.6993	100.627	199.674
6.875	99.6981	100.626	199.676
6.8775	99.6969	100.625	199.678
6.88	99.6957	100.625	199.68
6.8825	99.6945	100.624	199.682
6.885	99.6933	100.623	199.684
6.8875	99.6921	100.622	199.686
6.89	99.691	100.621	199.688
6.8925	99.6898	100.621	199.69
6.895	99.6886	100.62	199.691
6.8975	99.6875	100.619	199.693
6.9	99.6864	100.618	199.695
6.9025	99.6852	100.618	199.697
6.905	99.6841	100.617	199.699
6.9075	99.683	100.616	199.701
6.91	99.6819	100.615	199.703
6.9125	99.6808	100.614	199.705
6.915	99.6797	100.614	199.707
6.9175	99.6786	100.613	199.709
6.92	99.6775	100.612	199.711
6.9225	99.6764	100.611	199.712
6.925	99.6753	100.61	199.714
6.9275	99.6743	100.609	199.716
6.93	99.6732	100.609	199.718
6.9325	99.6722	100.608	199.72
6.935	99.6711	100.607	199.722
6.9375	99.6701	100.606	199.724
6.94	99.6691	100.605	199.726
6.9425	99.668	100.605	199.727
6.945	99.667	100.604	199.729
6.9475	99.666	100.603	199.731
6.95	99.665	100.602	199.733
6.9525	99.664	100.601	199.735
6.955	99.6631	100.6	199.737
6.9575	99.6621	100.599	199.738
6.96	99.6611	100.599	199.74
6.9625	99.6601	100.598	199.742
6.965	99.6592	100.597	199.744
6.9675	99.6582	100.596	199.746
6.97	99.6573	100.595	199.748
6.9725	99.6563	100.594	199.749
6.975	99.6554	100.593	199.751
6.9775	99.6545	100.593	199.753
6.98	99.6536	100.592	199.755
6.9825	99.6527	100.591	199.756
6.985	99.6517	100.59	199.758
6.9875	99.6509	100.589	199.76
6.99	99.65	100.588	199.762
6.9925	99.6491	100.587	199.764
6.995	99.6482	100.586	199.765
6.9975	99.6473	100.586	199.767
7	99.6465	100.585	199.769
7.0025	99.6456	100.584	199.771
7.005	99.6448	100.583	199.772
7.0075	99.6439	100.582	199.774
7.01	99.6431	100.581	199.776
7.0125	99.6422	100.58	199.778
7.015	99.6414	100.579	199.779
7.0175	99.6406	100.578	199.781
7.02	99.6398	100.577	199.783
7.0225	99.639	100.577	199.784
7.025	99.6382	100.576	199.786
7.0275	99.6374	100.575	199.788
7.03	99.6366	100.574	199.79
7.0325	99.6358	100.573	199.791
7.035	99.635	100.572	199.793
7.0375	99.6343	100.571	199.795
7.04	99.6335	100.57	199.796
7.0425	99.6327	100.569	199.798
7.045	99.632	100.568	199.8
7.0475	99.6313	100.567	199.801
7.05	99.6305	100.566	199.803
7.0525	99.6298	100.566	199.805
7.055	99.6291	100.565	199.806
7.0575	99.6283	100.564	199.808
7.06	99.6276	100.563	199.81
7.0625	99.6269	100.562	199.811
7.065	99.6262	100.561	199.813
7.0675	99.6255	100.56	199.815
7.07	99.6249	100.559	199.816
7.0725	99.6242	100.558	199.818
7.075	99.6235	100.557	199.819
7.0775	99.6228	100.556	199.821
7.08	99.6222	100.555	199.823
7.0825	99.6215	100.554	199.824
7.085	99.6209	100.553	199.826
7.0875	99.6202	100.552	199.827
7.09	99.6196	100.551	199.829
7.0925	99.6189	100.55	199.831
7.095	99.6183	100.549	199.832
7.0975	99.6177	100.549	199.834
7.1	99.6171	100.548	199.835
7.1025	99.6165	100.547	199.837
7.105	99.6159	100.546	199.839
7.1075	99.6153	100.545	199.84
7.11	99.6147	100.544	199.842
7.1125	99.6141	100.543	199.843
7.115	99.6135	100.542	199.845
7.1175	99.6129	100.541	199.846
7.12	99.6124	100.54	199.848
7.1225	99.6118	100.539	199.849
7.125	99.6112	100.538	199.851
7.1275	99.6107	100.537	199.852
7.13	99.6101	100.536	199.854
7.1325	99.6096	100.535	199.855
7.135	99.6091	100.534	199.857
7.1375	99.6085	100.533	199.858
7.14	99.608	100.532	199.86
7.1425	99.6075	100.531	199.862
7.145	99.607	100.53	199.863
7.1475	99.6065	100.529	199.864
7.15	99.606	100.528	199.866
7.1525	99.6055	100.527	199.867
7.155	99.605	100.526	199.869
7.1575	99.6045	100.525	199.87
7.16	99.604	100.524	199.872
7.1625	99.6036	100.523	199.873
7.165	99.6031	100.522	199.875
7.1675	99.6026	100.521	199.876
7.17	99.6022	100.52	199.878
7.1725	99.6017	100.519	199.879
7.175	99.6013	100.518	199.881
7.1775	99.6009	100.517	199.882
7.18	99.6004	100.516	199.884
7.1825	99.6	100.515	199.885
7.185	99.5996	100.514	199.886
7.1875	99.5991	100.513	199.888
7.19	99.5987	100.512	199.889
7.1925	99.5983	100.511	199.891
7.195	99.5979	100.51	199.892
7.1975	99.5975	100.509	199.893
7.2	99.5971	100.508	199.895
7.2025	99.5968	100.507	199.896
7.205	99.5964	100.506	199.898
7.2075	99.596	100.505	199.899
7.21	99.5956	100.504	199.9
7.2125	99.5953	100.503	199.902
7.215	99.5949	100.502	199.903
7.2175	99.5945	100.501	199.905
7.22	99.5942	100.5	199.906
7.2225	99.5938	100.499	199.907
7.225	99.5935	100.498	199.909
7.2275	99.5932	100.497	199.91
7.23	99.5928	100.496	199.911
7.2325	99.5925	100.495	199.913
7.235	99.5922	100.494	199.914
7.2375	99.5919	100.493	199.915
7.24	99.5916	100.492	199.917
7.2425	99.5913	100.491	199.918
7.245	99.591	100.49	199.919
7.2475	99.5907	100.489	199.921
7.25	99.5904	100.488	199.922
7.2525	99.5901	100.487	199.923
7.255	99.5898	100.486	199.925
7.2575	99.5895	100.484	199.926
7.26	99.5893	100.483	199.927
7.2625	99.589	100.482	199.929
7.265	99.5887	100.481	199.93
7.2675	99.5885	100.48	199.931
7.27	99.5882	100.479	199.932
7.2725	99.588	100.478	199.934
7.275	99.5878	100.477	199.935
7.2775	99.5875	100.476	199.936
7.28	99.5873	100.475	199.938
7.2825	99.5871	100.474	199.939
7.285	99.5868	100.473	199.94
7.2875	99.5866	100.472	199.941
7.29	99.5864	100.471	199.943
7.2925	99.5862	100.47	199.944
7.295	99.586	100.469	199.945
7.2975	99.5858	100.468	199.946
7.3	99.5856	100.467	199.948
7.3025	99.5854	100.466	199.949
7.305	99.5852	100.465	199.95
7.3075	99.585	100.464	199.951
7.31	99.5849	100.463	199.952
7.3125	99.5847	100.462	199.954
7.315	99.5845	100.461	199.955
7.3175	99.5844	100.46	199.956
7.32	99.5842	100.459	199.957
7.3225	99.5841	100.457	199.958
7.325	99.5839	100.456	199.96
7.3275	99.5838	100.455	199.961
7.33	99.5836	100.454	199.962
7.3325	99.5835	100.453	199.963
7.335	99.5834	100.452	199.964
7.3375	99.5832	100.451	199.966
7.34	99.5831	100.45	199.967
7.3425	99.583	100.449	199.968
7.345	99.5829	100.448	199.969
7.3475	99.5828	100.447	199.97
7.35	99.5827	100.446	199.971
7.3525	99.5826	100.445	199.973
7.355	99.5825	100.444	199.974
7.3575	99.5824	100.443	199.975
7.36	99.5823	100.442	199.976
7.3625	99.5822	100.441	199.977
7.365	99.5821	100.44	199.978
7.3675	99.5821	100.439	199.979
7.37	99.582	100.438	199.98
7.3725	99.5819	100.437	199.982
7.375	99.5819	100.435	199.983
7.3775	99.5818	100.434	199.984
7.38	99.5817	100.433	199.985
7.3825	99.5817	100.432	199.986
7.385	99.5816	100.431	199.987
7.3875	99.5816	100.43	199.988
7.39	99.5816	100.429	199.989
7.3925	99.5815	100.428	199.99
7.395	99.5815	100.427	199.991
7.3975	99.5815	100.426	199.993
7.4	99.5815	100.425	199.994
7.4025	99.5814	100.424	199.995
7.405	99.5814	100.423	199.996
7.4075	99.5814	100.422	199.997
7.41	99.5814	100.421	199.998
7.4125	99.5814	100.42	199.999
7.415	99.5814	100.419	200
7.4175	99.5814	100.418	200.001
7.42	99.5814	100.417	200.002
7.4225	99.5814	100.416	200.003
7.425	99.5815	100.414	200.004
7.4275	99.5815	100.413	200.005
7.43	99.5815	100.412	200.006
7.4325	99.5815	100.411	200.007
7.435	99.5816	100.41	200.008
7.4375	99.5816	100.409	200.009
7.44	99.5816	100.408	200.01
7.4425	99.5817	100.407	200.011
7.445	99.5817	100.406	200.012
7.4475	99.5818	100.405	200.013
7.45	99.5818	100.404	200.014
7.4525	99.5819	100.403	200.015
7.455	99.582	100.402	200.016
7.4575	99.582	100.401	200.017
7.46	99.5821	100.4	200.018
7.4625	99.5822	100.399	200.019
7.465	99.5823	100.398	200.02
7.4675	99.5823	100.397	200.021
7.47	99.5824	100.396	200.022
7.4725	99.5825	100.395	200.023
7.475	99.5826	100.393	200.024
7.4775	99.5827	100.392	200.025
7.48	99.5828	100.391	200.026
7.4825	99.5829	100.39	200.027
7.485	99.583	100.389	200.028
7.4875	99.5831	100.388	200.029
7.49	99.5832	100.387	200.03
7.4925	99.5833	100.386	200.031
7.495	99.5835	100.385	200.031
7.4975	99.5836	100.384	200.032
7.5	99.5837	100.383	200.033
7.5025	99.5838	100.382	200.034
7.505	99.584	100.381	200.035
7.5075	99.5841	100.38	200.036
7.51	99.5843	100.379	200.037
7.5125	99.5844	100.378	200.038
7.515	99.5845	100.377	200.039
7.5175	99.5847	100.376	200.04
7.52	99.5849	100.375	200.04
7.5225	99.585	100.374	200.041
7.525	99.5852	100.373	200.042
7.5275	99.5853	100.372	200.043
7.53	99.5855	100.371	200.044
7.5325	99.5857	100.369	200.045
7.535	99.5858	100.368	200.046
7.5375	99.586	100.367	200.047
7.54	99.5862	100.366	200.047
7.5425	99.5864	100.365	200.048
7.545	99.5866	100.364	200.049
7.5475	99.5868	100.363	200.05
7.55	99.587	100.362	200.051
7.5525	99.5871	100.361	200.052
7.555	99.5873	100.36	200.053
7.5575	99.5876	100.359	200.053
7.56	99.5878	100.358	200.054
7.5625	99.588	100.357	200.055
7.565	99.5882	100.356	200.056
7.5675	99.5884	100.355	200.057
7.57	99.5886	100.354	200.057
7.5725	99.5888	100.353	200.058
7.575	99.5891	100.352	200.059
7.5775	99.5893	100.351	200.06
7.58	99.5895	100.35	200.061
7.5825	99.5897	100.349	200.061
7.585	99.59	100.348	200.062
7.5875	99.5902	100.347	200.063
7.59	99.5905	100.346	200.064
7.5925	99.5907	100.345	200.065
7.595	99.5909	100.344	200.065
7.5975	99.5912	100.343	200.066
7.6	99.5915	100.342	200.067
7.6025	99.5917	100.341	200.068
7.605	99.592	100.34	200.069
7.6075	99.5922	100.339	200.069
7.61	99.5925	100.337	200.07
7.6125	99.5928	100.336	200.071
7.615	99.593	100.335	200.072
7.6175	99.5933	100.334	200.072
7.62	99.5936	100.333	200.073
7.6225	99.5939	100.332	200.074
7.625	99.5941	100.331	200.074
7.6275	99.5944	100.33	200.075
7.63	99.5947	100.329	200.076
7.6325	99.595	100.328	200.077
7.635	99.5953	100.327	200.077
7.6375	99.5956	100.326	200.078
7.64	99.5959	100.325	200.079
7.6425	99.5962	100.324	200.08
7.645	99.5965	100.323	200.08
7.6475	99.5968	100.322	200.081
7.65	99.5971	100.321	200.082
7.6525	99.5974	100.32	200.082
7.655	99.5977	100.319	200.083
7.6575	99.598	100.318	200.084
7.66	99.5984	100.317	200.084
7.6625	99.5987	100.316	200.085
7.665	99.599	100.315	200.086
7.6675	99.5993	100.314	200.086
7.67	99.5997	100.313	200.087
7.6725	99.6	100.312	200.088
7.675	99.6003	100.311	200.089
7.6775	99.6007	100.31	200.089
7.68	99.601	100.309	200.09
7.6825	99.6013	100.308	200.091
7.685	99.6017	100.307	200.091
7.6875	99.602	100.306	200.092
7.69	99.6024	100.305	200.092
7.6925	99.6027	100.304	200.093
7.695	99.6031	100.303	200.094
7.6975	99.6034	100.302	200.094
7.7	99.6038	100.301	200.095
7.7025	99.6042	100.3	200.096
7.705	99.6045	100.299	200.096
7.7075	99.6049	100.298	200.097
7.71	99.6053	100.297	200.098
7.7125	99.6056	100.296	200.098
7.715	99.606	100.295	200.099
7.7175	99.6064	100.294	200.099
7.72	99.6067	100.293	200.1
7.7225	99.6071	100.292	200.101
7.725	99.6075	100.291	200.101
7.7275	99.6079	100.29	200.102
7.73	99.6083	100.289	200.102
7.7325	99.6087	100.288	200.103
7.735	99.6091	100.287	200.104
7.7375	99.6094	100.286	200.104
7.74	99.6098	100.285	200.105
7.7425	99.6102	100.284	200.105
7.745	99.6106	100.283	200.106
7.7475	99.611	100.282	200.106
7.75	99.6114	100.281	200.107
7.7525	99.6118	100.281	200.108
7.755	99.6123	100.28	200.108
7.7575	99.6127	100.279	200.109
7.76	99.6131	100.278	200.109
7.7625	99.6135	100.277	200.11
7.765	99.6139	100.276	200.11
7.7675	99.6143	100.275	200.111
7.77	99.6147	100.274	200.112
7.7725	99.6152	100.273	200.112
7.775	99.6156	100.272	200.113
7.7775	99.616	100.271	200.113
7.78	99.6164	100.27	200.114
7.7825	99.6169	100.269	200.114
7.785	99.6173	100.268	200.115
7.7875	99.6177	100.267	200.115
7.79	99.6182	100.266	200.116
7.7925	99.6186	100.265	200.116
7.795	99.6191	100.264	200.117
7.7975	99.6195	100.263	200.117
7.8	99.6199	100.262	200.118
7.8025	99.6204	100.261	200.118
7.805	99.6208	100.26	200.119
7.8075	99.6213	100.259	200.119
7.81	99.6217	100.258	200.12
7.8125	99.6222	100.257	200.12
7.815	99.6226	100.257	200.121
7.8175	99.6231	100.256	200.121
7.82	99.6236	100.255	200.122
7.8225	99.624	100.254	200.122
7.825	99.6245	100.253	200.123
7.8275	99.6249	100.252	200.123
7.83	99.6254	100.251	200.124
7.8325	99.6259	100.25	200.124
7.835	99.6263	100.249	200.125
7.8375	99.6268	100.248	200.125
7.84	99.6273	100.247	200.126
7.8425	99.6278	100.246	200.126
7.845	99.6282	100.245	200.127
7.8475	99.6287	100.244	200.127
7.85	99.6292	100.243	200.127
7.8525	99.6297	100.242	200.128
7.855	99.6302	100.242	200.128
7.8575	99.6306	100.241	200.129
7.86	99.6311	100.24	200.129
7.8625	99.6316	100.239	200.13
7.865	99.6321	100.238	200.13
7.8675	99.6326	100.237	200.13
7.87	99.6331	100.236	200.131
7.8725	99.6336	100.235	200.131
7.875	99.6341	100.234	200.132
7.8775	99.6346	100.233	200.132
7.88	99.6351	100.232	200.133
7.8825	99.6356	100.231	200.133
7.885	99.6361	100.231	200.133
7.8875	99.6366	100.23	200.134
7.89	99.6371	100.229	200.134
7.8925	99.6376	100.228	200.135
7.895	99.6381	100.227	200.135
7.8975	99.6386	100.226	200.135
7.9	99.6391	100.225	200.136
7.9025	99.6396	100.224	200.136
7.905	99.6401	100.223	200.137
7.9075	99.6407	100.222	200.137
7.91	99.6412	100.221	200.137
7.9125	99.6417	100.221	200.138
7.915	99.6422	100.22	200.138
7.9175	99.6427	100.219	200.139
7.92	99.6432	100.218	200.139
7.9225	99.6438	100.217	200.139
7.925	99.6443	100.216	200.14
7.9275	99.6448	100.215	200.14
7.93	99.6453	100.214	200.14
7.9325	99.6459	100.213	200.141
7.935	99.6464	100.213	200.141
7.9375	99.6469	100.212	200.141
7.94	99.6475	100.211	200.142
7.9425	99.648	100.21	200.142
7.945	99.6485	100.209	200.142
7.9475	99.6491	100.208	200.143
7.95	99.6496	100.207	200.143
7.9525	99.6502	100.206	200.143
7.955	99.6507	100.205	200.144
7.9575	99.6512	100.205	200.144
7.96	99.6518	100.204	200.144
7.9625	99.6523	100.203	200.145
7.965	99.6529	100.202	200.145
7.9675	99.6534	100.201	200.145
7.97	99.654	100.2	200.146
7.9725	99.6545	100.199	200.146
7.975	99.6551	100.199	200.146
7.9775	99.6556	100.198	200.147
7.98	99.6562	100.197	200.147
7.9825	99.6567	100.196	200.147
7.985	99.6573	100.195	200.148
7.9875	99.6578	100.194	200.148
7.99	99.6584	100.193	200.148
7.9925	99.6589	100.193	200.149
7.995	99.6595	100.192	200.149
7.9975	99.6601	100.191	200.149
8	99.6606	100.19	200.149
8.0025	99.6612	100.189	200.15
8.005	99.6618	100.188	200.15
8.0075	99.6623	100.187	200.15
8.01	99.6629	100.187	200.151
8.0125	99.6634	100.186	200.151
8.015	99.664	100.185	200.151
8.0175	99.6646	100.184	200.151
8.02	99.6652	100.183	200.152
8.0225	99.6657	100.182	200.152
8.025	99.6663	100.182	200.152
8.0275	99.6669	100.181	200.152
8.03	99.6674	100.18	200.153
8.0325	99.668	100.179	200.153
8.035	99.6686	100.178	200.153
8.0375	99.6692	100.177	200.153
8.04	99.6697	100.177	200.154
8.0425	99.6703	100.176	200.154
8.045	99.6709	100.175	200.154
8.0475	99.6715	100.174	200.154
8.05	99.6721	100.173	200.155
8.0525	99.6726	100.172	200.155
8.055	99.6732	100.172	200.155
8.0575	99.6738	100.171	200.155
8.06	99.6744	100.17	200.156
8.0625	99.675	100.169	200.156
8.065	99.6756	100.168	200.156
8.0675	99.6762	100.168	200.156
8.07	99.6767	100.167	200.157
8.0725	99.6773	100.166	200.157
8.075	99.6779	100.165	200.157
8.0775	99.6785	100.164	200.157
8.08	99.6791	100.163	200.157
8.0825	99.6797	100.163	200.158
8.085	99.6803	100.162	200.158
8.0875	99.6809	100.161	200.158
8.09	99.6815	100.16	200.158
8.0925	99.6821	100.16	200.158
8.095	99.6827	100.159	200.159
8.0975	99.6833	100.158	200.159
8.1	99.6839	100.157	200.159
8.1025	99.6845	100.156	200.159
8.105	99.6851	100.156	200.159
8.1075	99.6857	100.155	200.16
8.11	99.6863	100.154	200.16
8.1125	99.6869	100.153	200.16
8.115	99.6875	100.152	200.16
8.1175	99.6881	100.152	200.16
8.12	99.6887	100.151	200.16
8.1225	99.6893	100.15	200.161
8.125	99.6899	100.149	200.161
8.1275	99.6905	100.149	200.161
8.13	99.6911	100.148	200.161
8.1325	99.6917	100.147	200.161
8.135	99.6923	100.146	200.162
8.1375	99.6929	100.145	200.162
8.14	99.6935	100.145	200.162
8.1425	99.6941	100.144	200.162
8.145	99.6947	100.143	200.162
8.1475	99.6953	100.142	200.162
8.15	99.6959	100.142	200.162
8.1525	99.6966	100.141	200.163
8.155	99.6972	100.14	200.163
8.1575	99.6978	100.139	200.163
8.16	99.6984	100.139	200.163
8.1625	99.699	100.138	200.163
8.165	99.6996	100.137	200.163
8.1675	99.7002	100.136	200.163
8.17	99.7008	100.136	200.164
8.1725	99.7015	100.135	200.164
8.175	99.7021	100.134	200.164
8.1775	99.7027	100.133	200.164
8.18	99.7033	100.133	200.164
8.1825	99.7039	100.132	200.164
8.185	99.7045	100.131	200.164
8.1875	99.7052	100.13	200.164
8.19	99.7058	100.13	200.165
8.1925	99.7064	100.129	200.165
8.195	99.707	100.128	200.165
8.1975	99.7076	100.127	200.165
8.2	99.7083	100.127	200.165
8.2025	99.7089	100.126	200.165
8.205	99.7095	100.125	200.165
8.2075	99.7101	100.124	200.165
8.21	99.7107	100.124	200.165
8.2125	99.7114	100.123	200.166
8.215	99.712	100.122	200.166
8.2175	99.7126	100.122	200.166
8.22	99.7132	100.121	200.166
8.2225	99.7139	100.12	200.166
8.225	99.7145	100.119	200.166
8.2275	99.7151	100.119	200.166
8.23	99.7157	100.118	200.166
8.2325	99.7163	100.117	200.166
8.235	99.717	100.117	200.166
8.2375	99.7176	100.116	200.167
8.24	99.7182	100.115	200.167
8.2425	99.7188	100.114	200.167
8.245	99.7195	100.114	200.167
8.2475	99.7201	100.113	200.167
8.25	99.7207	100.112	200.167
8.2525	99.7214	100.112	200.167
8.255	99.722	100.111	200.167
8.2575	99.7226	100.11	200.167
8.26	99.7232	100.11	200.167
8.2625	99.7239	100.109	200.167
8.265	99.7245	100.108	200.167
8.2675	99.7251	100.108	200.167
8.27	99.7257	100.107	200.167
8.2725	99.7264	100.106	200.167
8.275	99.727	100.105	200.168
8.2775	99.7276	100.105	200.168
8.28	99.7283	100.104	200.168
8.2825	99.7289	100.103	200.168
8.285	99.7295	100.103	200.168
8.2875	99.7302	100.102	200.168
8.29	99.7308	100.101	200.168
8.2925	99.7314	100.101	200.168
8.295	99.732	100.1	200.168
8.2975	99.7327	100.099	200.168
8.3	99.7333	100.099	200.168
8.3025	99.7339	100.098	200.168
8.305	99.7346	100.097	200.168
8.3075	99.7352	100.097	200.168
8.31	99.7358	100.096	200.168
8.3125	99.7365	100.095	200.168
8.315	99.7371	100.095	200.168
8.3175	99.7377	100.094	200.168
8.32	99.7384	100.093	200.168
8.3225	99.739	100.093	200.168
8.325	99.7396	100.092	200.168
8.3275	99.7402	100.091	200.168
8.33	99.7409	100.091	200.168
8.3325	99.7415	100.09	200.168
8.335	99.7421	100.09	200.168
8.3375	99.7428	100.089	200.168
8.34	99.7434	100.088	200.168
8.3425	99.744	100.088	200.168
8.345	99.7447	100.087	200.168
8.3475	99.7453	100.086	200.168
8.35	99.7459	100.086	200.168
8.3525	99.7466	100.085	200.168
8.355	99.7472	100.084	200.168
8.3575	99.7478	100.084	200.168
8.36	99.7485	100.083	200.168
8.3625	99.7491	100.083	200.168
8.365	99.7497	100.082	200.168
8.3675	99.7504	100.081	200.168
8.37	99.751	100.081	200.168
8.3725	99.7516	100.08	200.168
8.375	99.7523	100.079	200.168
8.3775	99.7529	100.079	200.168
8.38	99.7535	100.078	200.168
8.3825	99.7541	100.078	200.168
8.385	99.7548	100.077	200.168
8.3875	99.7554	100.076	200.168
8.39	99.756	100.076	200.168
8.3925	99.7567	100.075	200.168
8.395	99.7573	100.074	200.168
8.3975	99.7579	100.074	200.168
8.4	99.7586	100.073	200.168
8.4025	99.7592	100.073	200.168
8.405	99.7598	100.072	200.168
8.4075	99.7605	100.071	200.168
8.41	99.7611	100.071	200.168
8.4125	99.7617	100.07	200.168
8.415	99.7623	100.07	200.168
8.4175	99.763	100.069	200.168
8.42	99.7636	100.069	200.168
8.4225	99.7642	100.068	200.168
8.425	99.7649	100.067	200.168
8.4275	99.7655	100.067	200.168
8.43	99.7661	100.066	200.168
8.4325	99.7668	100.066	200.168
8.435	99.7674	100.065	200.168
8.4375	99.768	100.064	200.168
8.44	99.7686	100.064	200.168
8.4425	99.7693	100.063	200.167
8.445	99.7699	100.063	200.167
8.4475	99.7705	100.062	200.167
8.45	99.7712	100.062	200.167
8.4525	99.7718	100.061	200.167
8.455	99.7724	100.06	200.167
8.4575	99.773	100.06	200.167
8.46	99.7737	100.059	200.167
8.4625	99.7743	100.059	200.167
8.465	99.7749	100.058	200.167
8.4675	99.7755	100.058	200.167
8.47	99.7762	100.057	200.167
8.4725	99.7768	100.056	200.167
8.475	99.7774	100.056	200.167
8.4775	99.778	100.055	200.167
8.48	99.7787	100.055	200.167
8.4825	99.7793	100.054	200.166
8.485	99.7799	100.054	200.166
8.4875	99.7805	100.053	200.166
8.49	99.7812	100.053	200.166
8.4925	99.7818	100.052	200.166
8.495	99.7824	100.051	200.166
8.4975	99.783	100.051	200.166
8.5	99.7837	100.05	200.166
8.5025	99.7843	100.05	200.166
8.505	99.7849	100.049	200.166
8.5075	99.7855	100.049	200.166
8.51	99.7862	100.048	200.166
8.5125	99.7868	100.048	200.166
8.515	99.7874	100.047	200.165
8.5175	99.788	100.047	200.165
8.52	99.7886	100.046	200.165
8.5225	99.7893	100.046	200.165
8.525	99.7899	100.045	200.165
8.5275	99.7905	100.045	200.165
8.53	99.7911	100.044	200.165
8.5325	99.7917	100.043	200.165
8.535	99.7923	100.043	200.165
8.5375	99.793	100.042	200.165
8.54	99.7936	100.042	200.164
8.5425	99.7942	100.041	200.164
8.545	99.7948	100.041	200.164
8.5475	99.7954	100.04	200.164
8.55	99.796	100.04	200.164
8.5525	99.7967	100.039	200.164
8.555	99.7973	100.039	200.164
8.5575	99.7979	100.038	200.164
8.56	99.7985	100.038	200.164
8.5625	99.7991	100.037	200.164
8.565	99.7997	100.037	200.163
8.5675	99.8003	100.036	200.163
8.57	99.801	100.036	200.163
8.5725	99.8016	100.035	200.163
8.575	99.8022	100.035	200.163
8.5775	99.8028	100.034	200.163
8.58	99.8034	100.034	200.163
8.5825	99.804	100.033	200.163
8.585	99.8046	100.033	200.162
8.5875	99.8052	100.032	200.162
8.59	99.8058	100.032	200.162
8.5925	99.8064	100.031	200.162
8.595	99.8071	100.031	200.162
8.5975	99.8077	100.03	200.162
8.6	99.8083	100.03	200.162
8.6025	99.8089	100.03	200.162
8.605	99.8095	100.029	200.161
8.6075	99.8101	100.029	200.161
8.61	99.8107	100.028	200.161
8.6125	99.8113	100.028	200.161
8.615	99.8119	100.027	200.161
8.6175	99.8125	100.027	200.161
8.62	99.8131	100.026	200.161
8.6225	99.8137	100.026	200.161
8.625	99.8143	100.025	200.16
8.6275	99.8149	100.025	200.16
8.63	99.8155	100.024	200.16
8.6325	99.8161	100.024	200.16
8.635	99.8167	100.023	200.16
8.6375	99.8173	100.023	200.16
8.64	99.8179	100.023	200.16
8.6425	99.8185	100.022	200.159
8.645	99.8191	100.022	200.159
8.6475	99.8197	100.021	200.159
8.65	99.8203	100.021	200.159
8.6525	99.8209	100.02	200.159
8.655	99.8215	100.02	200.159
8.6575	99.8221	100.019	200.159
8.66	99.8227	100.019	200.158
8.6625	99.8233	100.018	200.158
8.665	99.8239	100.018	200.158
8.6675	99.8245	100.018	200.158
8.67	99.8251	100.017	200.158
8.6725	99.8256	100.017	200.158
8.675	99.8262	100.016	200.157
8.6775	99.8268	100.016	200.157
8.68	99.8274	100.015	200.157
8.6825	99.828	100.015	200.157
8.685	99.8286	100.015	200.157
8.6875	99.8292	100.014	200.157
8.69	99.8298	100.014	200.157
8.6925	99.8304	100.013	200.156
8.695	99.8309	100.013	200.156
8.6975	99.8315	100.012	200.156
8.7	99.8321	100.012	200.156
8.7025	99.8327	100.012	200.156
8.705	99.8333	100.011	200.156
8.7075	99.8339	100.011	200.155
8.71	99.8344	100.01	200.155
8.7125	99.835	100.01	200.155
8.715	99.8356	100.01	200.155
8.7175	99.8362	100.009	200.155
8.72	99.8368	100.009	200.155
8.7225	99.8374	100.008	200.154
8.725	99.8379	100.008	200.154
8.7275	99.8385	100.007	200.154
8.73	99.8391	100.007	200.154
8.7325	99.8397	100.007	200.154
8.735	99.8402	100.006	200.153
8.7375	99.8408	100.006	200.153
8.74	99.8414	100.005	200.153
8.7425	99.842	100.005	200.153
8.745	99.8425	100.005	200.153
8.7475	99.8431	100.004	200.153
8.75	99.8437	100.004	200.152
8.7525	99.8443	100.004	200.152
8.755	99.8448	100.003	200.152
8.7575	99.8454	100.003	200.152
8.76	99.846	100.002	200.152
8.7625	99.8465	100.002	200.152
8.765	99.8471	100.002	200.151
8.7675	99.8477	100.001	200.151
8.77	99.8482	100.001	200.151
8.7725	99.8488	100	200.151
8.775	99.8494	100	200.151
8.7775	99.8499	99.9997	200.15
8.78	99.8505	99.9993	200.15
8.7825	99.8511	99.9989	200.15
8.785	99.8516	99.9986	200.15
8.7875	99.8522	99.9982	200.15
8.79	99.8527	99.9978	200.149
8.7925	99.8533	99.9975	200.149
8.795	99.8539	99.9971	200.149
8.7975	99.8544	99.9967	200.149
8.8	99.855	99.9964	200.149
8.8025	99.8555	99.996	200.148
8.805	99.8561	99.9956	200.148
8.8075	99.8566	99.9953	200.148
8.81	99.8572	99.9949	200.148
8.8125	99.8578	99.9946	200.148
8.815	99.8583	99.9942	200.147
8.8175	99.8589	99.9939	200.147
8.82	99.8594	99.9935	200.147
8.8225	99.86	99.9932	200.147
8.825	99.8605	99.9928	200.147
8.8275	99.8611	99.9925	200.146
8.83	99.8616	99.9921	200.146
8.8325	99.8622	99.9918	200.146
8.835	99.8627	99.9914	200.146
8.8375	99.8633	99.9911	200.146
8.84	99.8638	99.9907	200.145
8.8425	99.8643	99.9904	200.145
8.845	99.8649	99.9901	200.145
8.8475	99.8654	99.9897	200.145
8.85	99.866	99.9894	200.145
8.8525	99.8665	99.9891	200.144
8.855	99.8671	99.9887	200.144
8.8575	99.8676	99.9884	200.144
8.86	99.8681	99.9881	200.144
8.8625	99.8687	99.9877	200.144
8.865	99.8692	99.9874	200.143
8.8675	99.8697	99.9871	200.143
8.87	99.8703	99.9868	200.143
8.8725	99.8708	99.9864	200.143
8.875	99.8714	99.9861	200.143
8.8775	99.8719	99.9858	200.142
8.88	99.8724	99.9855	200.142
8.8825	99.873	99.9852	200.142
8.885	99.8735	99.9848	200.142
8.8875	99.874	99.9845	200.141
8.89	99.8745	99.9842	200.141
8.8925	99.8751	99.9839	200.141
8.895	99.8756	99.9836	200.141
8.8975	99.8761	99.9833	200.141
8.9	99.8767	99.983	200.14
8.9025	99.8772	99.9827	200.14
8.905	99.8777	99.9823	200.14
8.9075	99.8782	99.982	200.14
8.91	99.8788	99.9817	200.14
8.9125	99.8793	99.9814	200.139
8.915	99.8798	99.9811	200.139
8.9175	99.8803	99.9808	200.139
8.92	99.8808	99.9805	200.139
8.9225	99.8814	99.9802	200.138
8.925	99.8819	99.9799	200.138
8.9275	99.8824	99.9796	200.138
8.93	99.8829	99.9794	200.138
8.9325	99.8834	99.9791	200.138
8.935	99.8839	99.9788	200.137
8.9375	99.8845	99.9785	200.137
8.94	99.885	99.9782	200.137
8.9425	99.8855	99.9779	200.137
8.945	99.886	99.9776	200.136
8.9475	99.8865	99.9773	200.136
8.95	99.887	99.9771	200.136
8.9525	99.8875	99.9768	200.136
8.955	99.888	99.9765	200.135
8.9575	99.8885	99.9762	200.135
8.96	99.8891	99.9759	200.135
8.9625	99.8896	99.9757	200.135
8.965	99.8901	99.9754	200.135
8.9675	99.8906	99.9751	200.134
8.97	99.8911	99.9748	200.134
8.9725	99.8916	99.9746	200.134
8.975	99.8921	99.9743	200.134
8.9775	99.8926	99.974	200.133
8.98	99.8931	99.9738	200.133
8.9825	99.8936	99.9735	200.133
8.985	99.8941	99.9732	200.133
8.9875	99.8946	99.973	200.132
8.99	99.8951	99.9727	200.132
8.9925	99.8956	99.9724	200.132
8.995	99.8961	99.9722	200.132
8.9975	99.8965	99.9719	200.132
9	99.897	99.9717	200.131
9.0025	99.8975	99.9714	200.131
9.005	99.898	99.9711	200.131
9.0075	99.8985	99.9709	200.131
9.01	99.899	99.9706	200.13
9.0125	99.8995	99.9704	200.13
9.015	99.9	99.9701	200.13
9.0175	99.9005	99.9699	200.13
9.02	99.901	99.9696	200.129
9.0225	99.9014	99.9694	200.129
9.025	99.9019	99.9691	200.129
9.0275	99.9024	99.9689	200.129
9.03	99.9029	99.9687	200.128
9.0325	99.9034	99.9684	200.128
9.035	99.9038	99.9682	200.128
9.0375	99.9043	99.9679	200.128
9.04	99.9048	99.9677	200.127
9.0425	99.9053	99.9675	200.127
9.045	99.9058	99.9672	200.127
9.0475	99.9062	99.967	200.127
9.05	99.9067	99.9668	200.127
9.0525	99.9072	99.9665	200.126
9.055	99.9077	99.9663	200.126
9.0575	99.9081	99.9661	200.126
9.06	99.9086	99.9658	200.126
9.0625	99.9091	99.9656	200.125
9.065	99.9095	99.9654	200.125
9.0675	99.91	99.9652	200.125
9.07	99.9105	99.9649	200.125
9.0725	99.9109	99.9647	200.124
9.075	99.9114	99.9645	200.124
9.0775	99.9119	99.9643	200.124
9.08	99.9123	99.964	200.124
9.0825	99.9128	99.9638	200.123
9.085	99.9133	99.9636	200.123
9.0875	99.9137	99.9634	200.123
9.09	99.9142	99.9632	200.123
9.0925	99.9146	99.963	200.122
9.095	99.9151	99.9628	200.122
9.0975	99.9156	99.9625	200.122
9.1	99.916	99.9623	200.122
9.1025	99.9165	99.9621	200.121
9.105	99.9169	99.9619	200.121
9.1075	99.9174	99.9617	200.121
9.11	99.9178	99.9615	200.121
9.1125	99.9183	99.9613	200.12
9.115	99.9187	99.9611	200.12
9.1175	99.9192	99.9609	200.12
9.12	99.9196	99.9607	200.12
9.1225	99.9201	99.9605	200.119
9.125	99.9205	99.9603	200.119
9.1275	99.921	99.9601	200.119
9.13	99.9214	99.9599	200.119
9.1325	99.9219	99.9597	200.118
9.135	99.9223	99.9595	200.118
9.1375	99.9228	99.9593	200.118
9.14	99.9232	99.9591	200.118
9.1425	99.9236	99.9589	200.117
9.145	99.9241	99.9587	200.117
9.1475	99.9245	99.9585	200.117
9.15	99.925	99.9584	200.117
9.1525	99.9254	99.9582	200.116
9.155	99.9258	99.958	200.116
9.1575	99.9263	99.9578	200.116
9.16	99.9267	99.9576	200.116
9.1625	99.9271	99.9574	200.115
9.165	99.9276	99.9573	200.115
9.1675	99.928	99.9571	200.115
9.17	99.9284	99.9569	200.115
9.1725	99.9289	99.9567	200.114
9.175	99.9293	99.9565	200.114
9.1775	99.9297	99.9564	200.114
9.18	99.9301	99.9562	200.114
9.1825	99.9306	99.956	200.113
9.185	99.931	99.9558	200.113
9.1875	99.9314	99.9557	200.113
9.19	99.9318	99.9555	200.113
9.1925	99.9323	99.9553	200.112
9.195	99.9327	99.9552	200.112
9.1975	99.9331	99.955	200.112
9.2	99.9335	99.9548	200.112
9.2025	99.9339	99.9547	200.111
9.205	99.9344	99.9545	200.111
9.2075	99.9348	99.9543	200.111
9.21	99.9352	99.9542	200.111
9.2125	99.9356	99.954	200.11
9.215	99.936	99.9538	200.11
9.2175	99.9364	99.9537	200.11
9.22	99.9368	99.9535	200.11
9.2225	99.9372	99.9534	200.109
9.225	99.9377	99.9532	200.109
9.2275	99.9381	99.9531	200.109
9.23	99.9385	99.9529	200.109
9.2325	99.9389	99.9527	200.108
9.235	99.9393	99.9526	200.108
9.2375	99.9397	99.9524	200.108
9.24	99.9401	99.9523	200.108
9.2425	99.9405	99.9521	200.107
9.245	99.9409	99.952	200.107
9.2475	99.9413	99.9519	200.107
9.25	99.9417	99.9517	200.107
9.2525	99.9421	99.9516	200.106
9.255	99.9425	99.9514	200.106
9.2575	99.9429	99.9513	200.106
9.26	99.9433	99.9511	200.106
9.2625	99.9437	99.951	200.105
9.265	99.9441	99.9508	200.105
9.2675	99.9445	99.9507	200.105
9.27	99.9449	99.9506	200.105
9.2725	99.9453	99.9504	200.104
9.275	99.9456	99.9503	200.104
9.2775	99.946	99.9502	200.104
9.28	99.9464	99.95	200.104
9.2825	99.9468	99.9499	200.103
9.285	99.9472	99.9498	200.103
9.2875	99.9476	99.9496	200.103
9.29	99.948	99.9495	200.103
9.2925	99.9484	99.9494	200.102
9.295	99.9487	99.9492	200.102
9.2975	99.9491	99.9491	200.102
9.3	99.9495	99.949	200.102
9.3025	99.9499	99.9489	200.101
9.305	99.9503	99.9487	200.101
9.3075	99.9506	99.9486	200.101
9.31	99.951	99.9485	200.1
9.3125	99.9514	99.9484	200.1
9.315	99.9518	99.9482	200.1
9.3175	99.9521	99.9481	200.1
9.32	99.9525	99.948	200.099
9.3225	99.9529	99.9479	200.099
9.325	99.9533	99.9478	200.099
9.3275	99.9536	99.9477	200.099
9.33	99.954	99.9475	200.098
9.3325	99.9544	99.9474	200.098
9.335	99.9547	99.9473	200.098
9.3375	99.9551	99.9472	200.098
9.34	99.9555	99.9471	200.097
9.3425	99.9558	99.947	200.097
9.345	99.9562	99.9469	200.097
9.3475	99.9566	99.9468	200.097
9.35	99.9569	99.9467	200.096
9.3525	99.9573	99.9465	200.096
9.355	99.9576	99.9464	200.096
9.3575	99.958	99.9463	200.096
9.36	99.9584	99.9462	200.095
9.3625	99.9587	99.9461	200.095
9.365	99.9591	99.946	200.095
9.3675	99.9594	99.9459	200.095
9.37	99.9598	99.9458	200.094
9.3725	99.9601	99.9457	200.094
9.375	99.9605	99.9456	200.094
9.3775	99.9608	99.9455	200.094
9.38	99.9612	99.9454	200.093
9.3825	99.9615	99.9453	200.093
9.385	99.9619	99.9452	200.093
9.3875	99.9622	99.9451	200.093
9.39	99.9626	99.945	200.092
9.3925	99.9629	99.9449	200.092
9.395	99.9633	99.9449	200.092
9.3975	99.9636	99.9448	200.092
9.4	99.964	99.9447	200.091
9.4025	99.9643	99.9446	200.091
9.405	99.9646	99.9445	200.091
9.4075	99.965	99.9444	200.091
9.41	99.9653	99.9443	200.09
9.4125	99.9657	99.9442	200.09
9.415	99.966	99.9442	200.09
9.4175	99.9663	99.9441	200.09
9.42	99.9667	99.944	200.089
9.4225	99.967	99.9439	200.089
9.425	99.9673	99.9438	200.089
9.4275	99.9677	99.9437	200.089
9.43	99.968	99.9437	200.088
9.4325	99.9683	99.9436	200.088
9.435	99.9687	99.9435	200.088
9.4375	99.969	99.9434	200.088
9.44	99.9693	99.9433	200.087
9.4425	99.9697	99.9433	200.087
9.445	99.97	99.9432	200.087
9.4475	99.9703	99.9431	200.087
9.45	99.9706	99.943	200.086
9.4525	99.9709	99.943	200.086
9.455	99.9713	99.9429	200.086
9.4575	99.9716	99.9428	200.086
9.46	99.9719	99.9428	200.085
9.4625	99.9722	99.9427	200.085
9.465	99.9726	99.9426	200.085
9.4675	99.9729	99.9425	200.085
9.47	99.9732	99.9425	200.084
9.4725	99.9735	99.9424	200.084
9.475	99.9738	99.9423	200.084
9.4775	99.9741	99.9423	200.084
9.48	99.9744	99.9422	200.083
9.4825	99.9748	99.9422	200.083
9.485	99.9751	99.9421	200.083
9.4875	99.9754	99.942	200.083
9.49	99.9757	99.942	200.082
9.4925	99.976	99.9419	200.082
9.495	99.9763	99.9419	200.082
9.4975	99.9766	99.9418	200.082
9.5	99.9769	99.9417	200.081
9.5025	99.9772	99.9417	200.081
9.505	99.9775	99.9416	200.081
9.5075	99.9778	99.9416	200.081
9.51	99.9781	99.9415	200.08
9.5125	99.9784	99.9415	200.08
9.515	99.9787	99.9414	200.08
9.5175	99.979	99.9413	200.08
9.52	99.9793	99.9413	200.079
9.5225	99.9796	99.9412	200.079
9.525	99.9799	99.9412	200.079
9.5275	99.9802	99.9411	200.079
9.53	99.9805	99.9411	200.078
9.5325	99.9808	99.941	200.078
9.535	99.9811	99.941	200.078
9.5375	99.9814	99.941	200.078
9.54	99.9817	99.9409	200.077
9.5425	99.982	99.9409	200.077
9.545	99.9823	99.9408	200.077
9.5475	99.9825	99.9408	200.077
9.55	99.9828	99.9407	200.076
9.5525	99.9831	99.9407	200.076
9.555	99.9834	99.9406	200.076
9.5575	99.9837	99.9406	200.076
9.56	99.984	99.9406	200.075
9.5625	99.9843	99.9405	200.075
9.565	99.9845	99.9405	200.075
9.5675	99.9848	99.9404	200.075
9.57	99.9851	99.9404	200.074
9.5725	99.9854	99.9404	200.074
9.575	99.9856	99.9403	200.074
9.5775	99.9859	99.9403	200.074
9.58	99.9862	99.9403	200.074
9.5825	99.9865	99.9402	200.073
9.585	99.9868	99.9402	200.073
9.5875	99.987	99.9402	200.073
9.59	99.9873	99.9401	200.073
9.5925	99.9876	99.9401	200.072
9.595	99.9878	99.9401	200.072
9.5975	99.9881	99.94	200.072
9.6	99.9884	99.94	200.072
9.6025	99.9886	99.94	200.071
9.605	99.9889	99.94	200.071
9.6075	99.9892	99.9399	200.071
9.61	99.9894	99.9399	200.071
9.6125	99.9897	99.9399	200.07
9.615	99.99	99.9398	200.07
9.6175	99.9902	99.9398	200.07
9.62	99.9905	99.9398	200.07
9.6225	99.9908	99.9398	200.069
9.625	99.991	99.9398	200.069
9.6275	99.9913	99.9397	200.069
9.63	99.9915	99.9397	200.069
9.6325	99.9918	99.9397	200.069
9.635	99.9921	99.9397	200.068
9.6375	99.9923	99.9397	200.068
9.64	99.9926	99.9396	200.068
9.6425	99.9928	99.9396	200.068
9.645	99.9931	99.9396	200.067
9.6475	99.9933	99.9396	200.067
9.65	99.9936	99.9396	200.067
9.6525	99.9938	99.9395	200.067
9.655	99.9941	99.9395	200.066
9.6575	99.9943	99.9395	200.066
9.66	99.9946	99.9395	200.066
9.6625	99.9948	99.9395	200.066
9.665	99.9951	99.9395	200.065
9.6675	99.9953	99.9395	200.065
9.67	99.9955	99.9395	200.065
9.6725	99.9958	99.9394	200.065
9.675	99.996	99.9394	200.065
9.6775	99.9963	99.9394	200.064
9.68	99.9965	99.9394	200.064
9.6825	99.9968	99.9394	200.064
9.685	99.997	99.9394	200.064
9.6875	99.9972	99.9394	200.063
9.69	99.9975	99.9394	200.063
9.6925	99.9977	99.9394	200.063
9.695	99.9979	99.9394	200.063
9.6975	99.9982	99.9394	200.062
9.7	99.9984	99.9394	200.062
9.7025	99.9986	99.9394	200.062
9.705	99.9989	99.9394	200.062
9.7075	99.9991	99.9394	200.062
9.71	99.9993	99.9394	200.061
9.7125	99.9996	99.9394	200.061
9.715	99.9998	99.9393	200.061
9.7175	100	99.9393	200.061
9.72	100	99.9393	200.06
9.7225	100	99.9394	200.06
9.725	100.001	99.9394	200.06
9.7275	100.001	99.9394	200.06
9.73	100.001	99.9394	200.059
9.7325	100.001	99.9394	200.059
9.735	100.002	99.9394	200.059
9.7375	100.002	99.9394	200.059
9.74	100.002	99.9394	200.059
9.7425	100.002	99.9394	200.058
9.745	100.002	99.9394	200.058
9.7475	100.003	99.9394	200.058
9.75	100.003	99.9394	200.058
9.7525	100.003	99.9394	200.057
9.755	100.003	99.9394	200.057
9.7575	100.004	99.9394	200.057
9.76	100.004	99.9394	200.057
9.7625	100.004	99.9394	200.057
9.765	100.004	99.9395	200.056
9.7675	100.004	99.9395	200.056
9.77	100.005	99.9395	200.056
9.7725	100.005	99.9395	200.056
9.775	100.005	99.9395	200.055
9.7775	100.005	99.9395	200.055
9.78	100.005	99.9395	200.055
9.7825	100.006	99.9395	200.055
9.785	100.006	99.9396	200.055
9.7875	100.006	99.9396	200.054
9.79	100.006	99.9396	200.054
9.7925	100.006	99.9396	200.054
9.795	100.007	99.9396	200.054
9.7975	100.007	99.9396	200.054
9.8	100.007	99.9396	200.053
9.8025	100.007	99.9397	200.053
9.805	100.007	99.9397	200.053
9.8075	100.008	99.9397	200.053
9.81	100.008	99.9397	200.052
9.8125	100.008	99.9397	200.052
9.815	100.008	99.9398	200.052
9.8175	100.008	99.9398	200.052
9.82	100.009	99.9398	200.052
9.8225	100.009	99.9398	200.051
9.825	100.009	99.9398	200.051
9.8275	100.009	99.9399	200.051
9.83	100.009	99.9399	200.051
9.8325	100.01	99.9399	200.05
9.835	100.01	99.9399	200.05
9.8375	100.01	99.94	200.05
9.84	100.01	99.94	200.05
9.8425	100.01	99.94	200.05
9.845	100.011	99.94	200.049
9.8475	100.011	99.9401	200.049
9.85	100.011	99.9401	200.049
9.8525	100.011	99.9401	200.049
9.855	100.011	99.9402	200.049
9.8575	100.011	99.9402	200.048
9.86	100.012	99.9402	200.048
9.8625	100.012	99.9402	200.048
9.865	100.012	99.9403	200.048
9.8675	100.012	99.9403	200.048
9.87	100.012	99.9403	200.047
9.8725	100.013	99.9404	200.047
9.875	100.013	99.9404	200.047
9.8775	100.013	99.9404	200.047
9.88	100.013	99.9405	200.046
9.8825	100.013	99.9405	200.046
9.885	100.013	99.9405	200.046
9.8875	100.014	99.9406	200.046
9.89	100.014	99.9406	200.046
9.8925	100.014	99.9406	200.045
9.895	100.014	99.9407	200.045
9.8975	100.014	99.9407	200.045
9.9	100.014	99.9407	200.045
9.9025	100.015	99.9408	200.045
9.905	100.015	99.9408	200.044
9.9075	100.015	99.9408	200.044
9.91	100.015	99.9409	200.044
9.9125	100.015	99.9409	200.044
9.915	100.015	99.941	200.044
9.9175	100.016	99.941	200.043
9.92	100.016	99.941	200.043
9.9225	100.016	99.9411	200.043
9.925	100.016	99.9411	200.043
9.9275	100.016	99.9412	200.043
9.93	100.016	99.9412	200.042
9.9325	100.017	99.9412	200.042
9.935	100.017	99.9413	200.042
9.9375	100.017	99.9413	200.042
9.94	100.017	99.9414	200.042
9.9425	100.017	99.9414	200.041
9.945	100.017	99.9414	200.041
9.9475	100.017	99.9415	200.041
9.95	100.018	99.9415	200.041
9.9525	100.018	99.9416	200.041
9.955	100.018	99.9416	200.04
9.9575	100.018	99.9417	200.04
9.96	100.018	99.9417	200.04
9.9625	100.018	99.9418	200.04
9.965	100.019	99.9418	200.04
9.9675	100.019	99.9419	200.039
9.97	100.019	99.9419	200.039
9.9725	100.019	99.9419	200.039
9.975	100.019	99.942	200.039
9.9775	100.019	99.942	200.039
9.98	100.019	99.9421	200.038
9.9825	100.02	99.9421	200.038
9.985	100.02	99.9422	200.038
9.9875	100.02	99.9422	200.038
9.99	100.02	99.9423	200.038
9.9925	100.02	99.9423	200.038
9.995	100.02	99.9424	200.037
9.9975	100.02	99.9424	200.037
10	100.021	99.9425	200.037
10.0025	100.021	99.9425	200.037
10.005	100.021	99.9426	200.037
10.0075	100.021	99.9426	200.036
10.01	100.021	99.9427	200.036
10.0125	100.021	99.9428	200.036
10.015	100.021	99.9428	200.036
10.0175	100.022	99.9429	200.036
10.02	100.022	99.9429	200.035
10.0225	100.022	99.943	200.035
10.025	100.022	99.943	200.035
10.0275	100.022	99.9431	200.035
10.03	100.022	99.9431	200.035
10.0325	100.022	99.9432	200.035
10.035	100.022	99.9432	200.034
10.0375	100.023	99.9433	200.034
10.04	100.023	99.9434	200.034
10.0425	100.023	99.9434	200.034
10.045	100.023	99.9435	200.034
10.0475	100.023	99.9435	200.033
10.05	100.023	99.9436	200.033
10.0525	100.023	99.9436	200.033
10.055	100.023	99.9437	200.033
10.0575	100.024	99.9438	200.033
10.06	100.024	99.9438	200.033
10.0625	100.024	99.9439	200.032
10.065	100.024	99.9439	200.032
10.0675	100.024	99.944	200.032
10.07	100.024	99.9441	200.032
10.0725	100.024	99.9441	200.032
10.075	100.024	99.9442	200.031
10.0775	100.025	99.9442	200.031
10.08	100.025	99.9443	200.031
10.0825	100.025	99.9444	200.031
10.085	100.025	99.9444	200.031
10.0875	100.025	99.9445	200.031
10.09	100.025	99.9445	200.03
10.0925	100.025	99.9446	200.03
10.095	100.025	99.9447	200.03
10.0975	100.025	99.9447	200.03
10.1	100.026	99.9448	200.03
10.1025	100.026	99.9449	200.029
10.105	100.026	99.9449	200.029
10.1075	100.026	99.945	200.029
10.11	100.026	99.9451	200.029
10.1125	100.026	99.9451	200.029
10.115	100.026	99.9452	200.029
10.1175	100.026	99.9453	200.028
10.12	100.026	99.9453	200.028
10.1225	100.027	99.9454	200.028
10.125	100.027	99.9455	200.028
10.1275	100.027	99.9455	200.028
10.13	100.027	99.9456	200.028
10.1325	100.027	99.9457	200.027
10.135	100.027	99.9457	200.027
10.1375	100.027	99.9458	200.027
10.14	100.027	99.9459	200.027
10.1425	100.027	99.9459	200.027
10.145	100.027	99.946	200.027
10.1475	100.028	99.9461	200.026
10.15	100.028	99.9461	200.026
10.1525	100.028	99.9462	200.026
10.155	100.028	99.9463	200.026
10.1575	100.028	99.9463	200.026
10.16	100.028	99.9464	200.026
10.1625	100.028	99.9465	200.025
10.165	100.028	99.9466	200.025
10.1675	100.028	99.9466	200.025
10.17	100.028	99.9467	200.025
10.1725	100.028	99.9468	200.025
10.175	100.029	99.9468	200.025
10.1775	100.029	99.9469	200.024
10.18	100.029	99.947	200.024
10.1825	100.029	99.9471	200.024
10.185	100.029	99.9471	200.024
10.1875	100.029	99.9472	200.024
10.19	100.029	99.9473	200.024
10.1925	100.029	99.9473	200.023
10.195	100.029	99.9474	200.023
10.1975	100.029	99.9475	200.023
10.2	100.029	99.9476	200.023
10.2025	100.03	99.9476	200.023
10.205	100.03	99.9477	200.023
10.2075	100.03	99.9478	200.022
10.21	100.03	99.9479	200.022
10.2125	100.03	99.9479	200.022
10.215	100.03	99.948	200.022
10.2175	100.03	99.9481	200.022
10.22	100.03	99.9482	200.022
10.2225	100.03	99.9482	200.022
10.225	100.03	99.9483	200.021
10.2275	100.03	99.9484	200.021
10.23	100.03	99.9485	200.021
10.2325	100.031	99.9485	200.021
10.235	100.031	99.9486	200.021
10.2375	100.031	99.9487	200.021
10.24	100.031	99.9488	200.02
10.2425	100.031	99.9488	200.02
10.245	100.031	99.9489	200.02
10.2475	100.031	99.949	200.02
10.25	100.031	99.9491	200.02
10.2525	100.031	99.9492	200.02
10.255	100.031	99.9492	200.02
10.2575	100.031	99.9493	200.019
10.26	100.031	99.9494	200.019
10.2625	100.031	99.9495	200.019
10.265	100.032	99.9495	200.019
10.2675	100.032	99.9496	200.019
10.27	100.032	99.9497	200.019
10.2725	100.032	99.9498	200.018
10.275	100.032	99.9499	200.018
10.2775	100.032	99.9499	200.018
10.28	100.032	99.95	200.018
10.2825	100.032	99.9501	200.018
10.285	100.032	99.9502	200.018
10.2875	100.032	99.9503	200.018
10.29	100.032	99.9503	200.017
10.2925	100.032	99.9504	200.017
10.295	100.032	99.9505	200.017
10.2975	100.032	99.9506	200.017
10.3	100.032	99.9507	200.017
10.3025	100.033	99.9507	200.017
10.305	100.033	99.9508	200.017
10.3075	100.033	99.9509	200.016
10.31	100.033	99.951	200.016
10.3125	100.033	99.9511	200.016
10.315	100.033	99.9512	200.016
10.3175	100.033	99.9512	200.016
10.32	100.033	99.9513	200.016
10.3225	100.033	99.9514	200.016
10.325	100.033	99.9515	200.015
10.3275	100.033	99.9516	200.015
10.33	100.033	99.9516	200.015
10.3325	100.033	99.9517	200.015
10.335	100.033	99.9518	200.015
10.3375	100.033	99.9519	200.015
10.34	100.033	99.952	200.015
10.3425	100.033	99.9521	200.014
10.345	100.034	99.9521	200.014
10.3475	100.034	99.9522	200.014
10.35	100.034	99.9523	200.014
10.3525	100.034	99.9524	200.014
10.355	100.034	99.9525	200.014
10.3575	100.034	99.9526	200.014
10.36	100.034	99.9527	200.014
10.3625	100.034	99.9527	200.013
10.365	100.034	99.9528	200.013
10.3675	100.034	99.9529	200.013
10.37	100.034	99.953	200.013
10.3725	100.034	99.9531	200.013
10.375	100.034	99.9532	200.013
10.3775	100.034	99.9532	200.013
10.38	100.034	99.9533	200.012
10.3825	100.034	99.9534	200.012
10.385	100.034	99.9535	200.012
10.3875	100.034	99.9536	200.012
10.39	100.034	99.9537	200.012
10.3925	100.034	99.9538	200.012
10.395	100.034	99.9538	200.012
10.3975	100.035	99.9539	200.012
10.4	100.035	99.954	200.011
10.4025	100.035	99.9541	200.011
10.405	100.035	99.9542	200.011
10.4075	100.035	99.9543	200.011
10.41	100.035	99.9544	200.011
10.4125	100.035	99.9545	200.011
10.415	100.035	99.9545	200.011
10.4175	100.035	99.9546	200.011
10.42	100.035	99.9547	200.01
10.4225	100.035	99.9548	200.01
10.425	100.035	99.9549	200.01
10.4275	100.035	99.955	200.01
10.43	100.035	99.9551	200.01
10.4325	100.035	99.9552	200.01
10.435	100.035	99.9552	200.01
10.4375	100.035	99.9553	200.01
10.44	100.035	99.9554	200.009
10.4425	100.035	99.9555	200.009
10.445	100.035	99.9556	200.009
10.4475	100.035	99.9557	200.009
10.45	100.035	99.9558	200.009
10.4525	100.035	99.9559	200.009
10.455	100.035	99.9559	200.009
10.4575	100.035	99.956	200.009
10.46	100.035	99.9561	200.008
10.4625	100.035	99.9562	200.008
10.465	100.036	99.9563	200.008
10.4675	100.036	99.9564	200.008
10.47	100.036	99.9565	200.008
10.4725	100.036	99.9566	200.008
10.475	100.036	99.9567	200.008
10.4775	100.036	99.9567	200.008
10.48	100.036	99.9568	200.007
10.4825	100.036	99.9569	200.007
10.485	100.036	99.957	200.007
10.4875	100.036	99.9571	200.007
10.49	100.036	99.9572	200.007
10.4925	100.036	99.9573	200.007
10.495	100.036	99.9574	200.007
10.4975	100.036	99.9575	200.007
10.5	100.036	99.9576	200.007
10.5025	100.036	99.9576	200.006
10.505	100.036	99.9577	200.006
10.5075	100.036	99.9578	200.006
10.51	100.036	99.9579	200.006
10.5125	100.036	99.958	200.006
10.515	100.036	99.9581	200.006
10.5175	100.036	99.9582	200.006
10.52	100.036	99.9583	200.006
10.5225	100.036	99.9584	200.006
10.525	100.036	99.9585	200.005
10.5275	100.036	99.9585	200.005
10.53	100.036	99.9586	200.005
10.5325	100.036	99.9587	200.005
10.535	100.036	99.9588	200.005
10.5375	100.036	99.9589	200.005
10.54	100.036	99.959	200.005
10.5425	100.036	99.9591	200.005
10.545	100.036	99.9592	200.005
10.5475	100.036	99.9593	200.004
10.55	100.036	99.9594	200.004
10.5525	100.036	99.9594	200.004
10.555	100.036	99.9595	200.004
10.5575	100.036	99.9596	200.004
10.56	100.036	99.9597	200.004
10.5625	100.036	99.9598	200.004
10.565	100.036	99.9599	200.004
10.5675	100.036	99.96	200.004
10.57	100.036	99.9601	200.003
10.5725	100.036	99.9602	200.003
10.575	100.036	99.9603	200.003
10.5775	100.036	99.9604	200.003
10.58	100.036	99.9604	200.003
10.5825	100.037	99.9605	200.003
10.585	100.037	99.9606	200.003
10.5875	100.037	99.9607	200.003
10.59	100.037	99.9608	200.003
10.5925	100.037	99.9609	200.003
10.595	100.037	99.961	200.002
10.5975	100.037	99.9611	200.002
10.6	100.037	99.9612	200.002
10.6025	100.037	99.9613	200.002
10.605	100.037	99.9614	200.002
10.6075	100.037	99.9615	200.002
10.61	100.037	99.9615	200.002
10.6125	100.037	99.9616	200.002
10.615	100.037	99.9617	200.002
10.6175	100.037	99.9618	200.002
10.62	100.037	99.9619	200.001
10.6225	100.037	99.962	200.001
10.625	100.037	99.9621	200.001
10.6275	100.037	99.9622	200.001
10.63	100.037	99.9623	200.001
10.6325	100.037	99.9624	200.001
10.635	100.037	99.9625	200.001
10.6375	100.037	99.9626	200.001
10.64	100.037	99.9626	200.001
10.6425	100.037	99.9627	200.001
10.645	100.037	99.9628	200.001
10.6475	100.037	99.9629	200
10.65	100.037	99.963	200
10.6525	100.037	99.9631	200
10.655	100.037	99.9632	200
10.6575	100.037	99.9633	200
10.66	100.037	99.9634	200
10.6625	100.037	99.9635	200
10.665	100.037	99.9636	200
10.6675	100.037	99.9637	200
10.67	100.037	99.9637	200
10.6725	100.037	99.9638	200
10.675	100.037	99.9639	199.999
10.6775	100.037	99.964	199.999
10.68	100.037	99.9641	199.999
10.6825	100.037	99.9642	199.999
10.685	100.037	99.9643	199.999
10.6875	100.037	99.9644	199.999
10.69	100.037	99.9645	199.999
10.6925	100.037	99.9646	199.999
10.695	100.037	99.9647	199.999
10.6975	100.037	99.9648	199.999
10.7	100.037	99.9648	199.999
10.7025	100.037	99.9649	199.998
10.705	100.037	99.965	199.998
10.7075	100.037	99.9651	199.998
10.71	100.037	99.9652	199.998
10.7125	100.037	99.9653	199.998
10.715	100.037	99.9654	199.998
10.7175	100.037	99.9655	199.998
10.72	100.037	99.9656	199.998
10.7225	100.037	99.9657	199.998
10.725	100.037	99.9658	199.998
10.7275	100.037	99.9658	199.998
10.73	100.037	99.9659	199.998
10.7325	100.037	99.966	199.997
10.735	100.037	99.9661	199.997
10.7375	100.037	99.9662	199.997
10.74	100.036	99.9663	199.997
10.7425	100.036	99.9664	199.997
10.745	100.036	99.9665	199.997
10.7475	100.036	99.9666	199.997
10.75	100.036	99.9667	199.997
10.7525	100.036	99.9668	199.997
10.755	100.036	99.9669	199.997
10.7575	100.036	99.9669	199.997
10.76	100.036	99.967	199.997
10.7625	100.036	99.9671	199.996
10.765	100.036	99.9672	199.996
10.7675	100.036	99.9673	199.996
10.77	100.036	99.9674	199.996
10.7725	100.036	99.9675	199.996
10.775	100.036	99.9676	199.996
10.7775	100.036	99.9677	199.996
10.78	100.036	99.9678	199.996
10.7825	100.036	99.9678	199.996
10.785	100.036	99.9679	199.996
10.7875	100.036	99.968	199.996
10.79	100.036	99.9681	199.996
10.7925	100.036	99.9682	199.996
10.795	100.036	99.9683	199.996
10.7975	100.036	99.9684	199.995
10.8	100.036	99.9685	199.995
10.8025	100.036	99.9686	199.995
10.805	100.036	99.9687	199.995
10.8075	100.036	99.9688	199.995
10.81	100.036	99.9688	199.995
10.8125	100.036	99.9689	199.995
10.815	100.036	99.969	199.995
10.8175	100.036	99.9691	199.995
10.82	100.036	99.9692	199.995
10.8225	100.036	99.9693	199.995
10.825	100.036	99.9694	199.995
10.8275	100.036	99.9695	199.995
10.83	100.036	99.9696	199.995
10.8325	100.036	99.9697	199.994
10.835	100.036	99.9697	199.994
10.8375	100.036	99.9698	199.994
10.84	100.036	99.9699	199.994
10.8425	100.036	99.97	199.994
10.845	100.036	99.9701	199.994
10.8475	100.036	99.9702	199.994
10.85	100.036	99.9703	199.994
10.8525	100.036	99.9704	199.994
10.855	100.036	99.9705	199.994
10.8575	100.036	99.9705	199.994
10.86	100.036	99.9706	199.994
10.8625	100.036	99.9707	199.994
10.865	100.036	99.9708	199.994
10.8675	100.036	99.9709	199.994
10.87	100.036	99.971	199.993
10.8725	100.036	99.9711	199.993
10.875	100.036	99.9712	199.993
10.8775	100.035	99.9713	199.993
10.88	100.035	99.9713	199.993
10.8825	100.035	99.9714	199.993
10.885	100.035	99.9715	199.993
10.8875	100.035	99.9716	199.993
10.89	100.035	99.9717	199.993
10.8925	100.035	99.9718	199.993
10.895	100.035	99.9719	199.993
10.8975	100.035	99.972	199.993
10.9	100.035	99.9721	199.993
10.9025	100.035	99.9721	199.993
10.905	100.035	99.9722	199.993
10.9075	100.035	99.9723	199.993
10.91	100.035	99.9724	199.992
10.9125	100.035	99.9725	199.992
10.915	100.035	99.9726	199.992
10.9175	100.035	99.9727	199.992
10.92	100.035	99.9728	199.992
10.9225	100.035	99.9728	199.992
10.925	100.035	99.9729	199.992
10.9275	100.035	99.973	199.992
10.93	100.035	99.9731	199.992
10.9325	100.035	99.9732	199.992
10.935	100.035	99.9733	199.992
10.9375	100.035	99.9734	199.992
10.94	100.035	99.9735	199.992
10.9425	100.035	99.9735	199.992
10.945	100.035	99.9736	199.992
10.9475	100.035	99.9737	199.992
10.95	100.035	99.9738	199.992
10.9525	100.035	99.9739	199.991
10.955	100.035	99.974	199.991
10.9575	100.035	99.9741	199.991
10.96	100.035	99.9742	199.991
10.9625	100.035	99.9742	199.991
10.965	100.034	99.9743	199.991
10.9675	100.034	99.9744	199.991
10.97	100.034	99.9745	199.991
10.9725	100.034	99.9746	199.991
10.975	100.034	99.9747	199.991
10.9775	100.034	99.9748	199.991
10.98	100.034	99.9748	199.991
10.9825	100.034	99.9749	199.991
10.985	100.034	99.975	199.991
10.9875	100.034	99.9751	199.991
10.99	100.034	99.9752	199.991
10.9925	100.034	99.9753	199.991
10.995	100.034	99.9754	199.991
10.9975	100.034	99.9754	199.991
11	100.034	99.9755	199.99
11.0025	100.034	99.9756	199.99
11.005	100.034	99.9757	199.99
11.0075	100.034	99.9758	199.99
11.01	100.034	99.9759	199.99
11.0125	100.034	99.9759	199.99
11.015	100.034	99.976	199.99
11.0175	100.034	99.9761	199.99
11.02	100.034	99.9762	199.99
11.0225	100.034	99.9763	199.99
11.025	100.034	99.9764	199.99
11.0275	100.034	99.9765	199.99
11.03	100.034	99.9765	199.99
11.0325	100.034	99.9766	199.99
11.035	100.033	99.9767	199.99
11.0375	100.033	99.9768	199.99
11.04	100.033	99.9769	199.99
11.0425	100.033	99.977	199.99
11.045	100.033	99.977	199.99
11.0475	100.033	99.9771	199.99
11.05	100.033	99.9772	199.99
11.0525	100.033	99.9773	199.99
11.055	100.033	99.9774	199.989
11.0575	100.033	99.9775	199.989
11.06	100.033	99.9775	199.989
11.0625	100.033	99.9776	199.989
11.065	100.033	99.9777	199.989
11.0675	100.033	99.9778	199.989
11.07	100.033	99.9779	199.989
11.0725	100.033	99.9779	199.989
11.075	100.033	99.978	199.989
11.0775	100.033	99.9781	199.989
11.08	100.033	99.9782	199.989
11.0825	100.033	99.9783	199.989
11.085	100.033	99.9784	199.989
11.0875	100.033	99.9784	199.989
11.09	100.033	99.9785	199.989
11.0925	100.033	99.9786	199.989
11.095	100.033	99.9787	199.989
11.0975	100.032	99.9788	199.989
11.1	100.032	99.9788	199.989
11.1025	100.032	99.9789	199.989
11.105	100.032	99.979	199.989
11.1075	100.032	99.9791	199.989
11.11	100.032	99.9792	199.989
11.1125	100.032	99.9792	199.989
11.115	100.032	99.9793	199.989
11.1175	100.032	99.9794	199.988
11.12	100.032	99.9795	199.988
11.1225	100.032	99.9796	199.988
11.125	100.032	99.9796	199.988
11.1275	100.032	99.9797	199.988
11.13	100.032	99.9798	199.988
11.1325	100.032	99.9799	199.988
11.135	100.032	99.98	199.988
11.1375	100.032	99.98	199.988
11.14	100.032	99.9801	199.988
11.1425	100.032	99.9802	199.988
11.145	100.032	99.9803	199.988
11.1475	100.032	99.9804	199.988
11.15	100.032	99.9804	199.988
11.1525	100.032	99.9805	199.988
11.155	100.031	99.9806	199.988
11.1575	100.031	99.9807	199.988
11.16	100.031	99.9808	199.988
11.1625	100.031	99.9808	199.988
11.165	100.031	99.9809	199.988
11.1675	100.031	99.981	199.988
11.17	100.031	99.9811	199.988
11.1725	100.031	99.9811	199.988
11.175	100.031	99.9812	199.988
11.1775	100.031	99.9813	199.988
11.18	100.031	99.9814	199.988
11.1825	100.031	99.9815	199.988
11.185	100.031	99.9815	199.988
11.1875	100.031	99.9816	199.988
11.19	100.031	99.9817	199.987
11.1925	100.031	99.9818	199.987
11.195	100.031	99.9818	199.987
11.1975	100.031	99.9819	199.987
11.2	100.031	99.982	199.987
11.2025	100.031	99.9821	199.987
11.205	100.031	99.9822	199.987
11.2075	100.03	99.9822	199.987
11.21	100.03	99.9823	199.987
11.2125	100.03	99.9824	199.987
11.215	100.03	99.9825	199.987
11.2175	100.03	99.9825	199.987
11.22	100.03	99.9826	199.987
11.2225	100.03	99.9827	199.987
11.225	100.03	99.9828	199.987
11.2275	100.03	99.9828	199.987
11.23	100.03	99.9829	199.987
11.2325	100.03	99.983	199.987
11.235	100.03	99.9831	199.987
11.2375	100.03	99.9831	199.987
11.24	100.03	99.9832	199.987
11.2425	100.03	99.9833	199.987
11.245	100.03	99.9834	199.987
11.2475	100.03	99.9834	199.987
11.25	100.03	99.9835	199.987
11.2525	100.03	99.9836	199.987
11.255	100.03	99.9837	199.987
11.2575	100.03	99.9837	199.987
11.26	100.029	99.9838	199.987
11.2625	100.029	99.9839	199.987
11.265	100.029	99.9839	199.987
11.2675	100.029	99.984	199.987
11.27	100.029	99.9841	199.987
11.2725	100.029	99.9842	199.987
11.275	100.029	99.9842	199.987
11.2775	100.029	99.9843	199.987
11.28	100.029	99.9844	199.987
11.2825	100.029	99.9845	199.987
11.285	100.029	99.9845	199.987
11.2875	100.029	99.9846	199.986
11.29	100.029	99.9847	199.986
11.2925	100.029	99.9847	199.986
11.295	100.029	99.9848	199.986
11.2975	100.029	99.9849	199.986
11.3	100.029	99.985	199.986
11.3025	100.029	99.985	199.986
11.305	100.029	99.9851	199.986
11.3075	100.029	99.9852	199.986
11.31	100.028	99.9852	199.986
11.3125	100.028	99.9853	199.986
11.315	100.028	99.9854	199.986
11.3175	100.028	99.9855	199.986
11.32	100.028	99.9855	199.986
11.3225	100.028	99.9856	199.986
11.325	100.028	99.9857	199.986
11.3275	100.028	99.9857	199.986
11.33	100.028	99.9858	199.986
11.3325	100.028	99.9859	199.986
11.335	100.028	99.986	199.986
11.3375	100.028	99.986	199.986
11.34	100.028	99.9861	199.986
11.3425	100.028	99.9862	199.986
11.345	100.028	99.9862	199.986
11.3475	100.028	99.9863	199.986
11.35	100.028	99.9864	199.986
11.3525	100.028	99.9864	199.986
11.355	100.028	99.9865	199.986
11.3575	100.027	99.9866	199.986
11.36	100.027	99.9866	199.986
11.3625	100.027	99.9867	199.986
11.365	100.027	99.9868	199.986
11.3675	100.027	99.9868	199.986
11.37	100.027	99.9869	199.986
11.3725	100.027	99.987	199.986
11.375	100.027	99.9871	199.986
11.3775	100.027	99.9871	199.986
11.38	100.027	99.9872	199.986
11.3825	100.027	99.9873	199.986
11.385	100.027	99.9873	199.986
11.3875	100.027	99.9874	199.986
11.39	100.027	99.9875	199.986
11.3925	100.027	99.9875	199.986
11.395	100.027	99.9876	199.986
11.3975	100.027	99.9877	199.986
11.4	100.027	99.9877	199.986
11.4025	100.027	99.9878	199.986
11.405	100.026	99.9879	199.986
11.4075	100.026	99.9879	199.986
11.41	100.026	99.988	199.986
11.4125	100.026	99.9881	199.986
11.415	100.026	99.9881	199.986
11.4175	100.026	99.9882	199.986
11.42	100.026	99.9883	199.986
11.4225	100.026	99.9883	199.986
11.425	100.026	99.9884	199.986
11.4275	100.026	99.9884	199.986
11.43	100.026	99.9885	199.986
11.4325	100.026	99.9886	199.986
11.435	100.026	99.9886	199.986
11.4375	100.026	99.9887	199.986
11.44	100.026	99.9888	199.986
11.4425	100.026	99.9888	199.986
11.445	100.026	99.9889	199.986
11.4475	100.026	99.989	199.986
11.45	100.025	99.989	199.985
11.4525	100.025	99.9891	199.985
11.455	100.025	99.9892	199.985
11.4575	100.025	99.9892	199.985
11.46	100.025	99.9893	199.985
11.4625	100.025	99.9893	199.985
11.465	100.025	99.9894	199.985
11.4675	100.025	99.9895	199.985
11.47	100.025	99.9895	199.985
11.4725	100.025	99.9896	199.985
11.475	100.025	99.9897	199.985
11.4775	100.025	99.9897	199.985
11.48	100.025	99.9898	199.985
11.4825	100.025	99.9898	199.985
11.485	100.025	99.9899	199.985
11.4875	100.025	99.99	199.985
11.49	100.025	99.99	199.985
11.4925	100.025	99.9901	199.985
11.495	100.024	99.9901	199.985
11.4975	100.024	99.9902	199.985
11.5	100.024	99.9903	199.985
11.5025	100.024	99.9903	199.985
11.505	100.024	99.9904	199.985
11.5075	100.024	99.9905	199.985
11.51	100.024	99.9905	199.985
11.5125	100.024	99.9906	199.985
11.515	100.024	99.9906	199.985
11.5175	100.024	99.9907	199.985
11.52	100.024	99.9908	199.985
11.5225	100.024	99.9908	199.985
11.525	100.024	99.9909	199.985
11.5275	100.024	99.9909	199.985
11.53	100.024	99.991	199.985
11.5325	100.024	99.9911	199.985
11.535	100.024	99.9911	199.985
11.5375	100.024	99.9912	199.985
11.54	100.024	99.9912	199.985
11.5425	100.023	99.9913	199.985
11.545	100.023	99.9913	199.985
11.5475	100.023	99.9914	199.985
11.55	100.023	99.9915	199.985
11.5525	100.023	99.9915	199.985
11.555	100.023	99.9916	199.985
11.5575	100.023	99.9916	199.985
11.56	100.023	99.9917	199.985
11.5625	100.023	99.9918	199.985
11.565	100.023	99.9918	199.985
11.5675	100.023	99.9919	199.985
11.57	100.023	99.9919	199.985
11.5725	100.023	99.992	199.985
11.575	100.023	99.992	199.985
11.5775	100.023	99.9921	199.985
11.58	100.023	99.9922	199.985
11.5825	100.023	99.9922	199.985
11.585	100.023	99.9923	199.985
11.5875	100.022	99.9923	199.985
11.59	100.022	99.9924	199.985
11.5925	100.022	99.9924	199.985
11.595	100.022	99.9925	199.985
11.5975	100.022	99.9925	199.985
11.6	100.022	99.9926	199.985
11.6025	100.022	99.9927	199.985
11.605	100.022	99.9927	199.985
11.6075	100.022	99.9928	199.985
11.61	100.022	99.9928	199.985
11.6125	100.022	99.9929	199.985
11.615	100.022	99.9929	199.985
11.6175	100.022	99.993	199.985
11.62	100.022	99.993	199.985
11.6225	100.022	99.9931	199.985
11.625	100.022	99.9931	199.985
11.6275	100.022	99.9932	199.985
11.63	100.022	99.9933	199.985
11.6325	100.021	99.9933	199.985
11.635	100.021	99.9934	199.985
11.6375	100.021	99.9934	199.985
11.64	100.021	99.9935	199.985
11.6425	100.021	99.9935	199.985
11.645	100.021	99.9936	199.985
11.6475	100.021	99.9936	199.985
11.65	100.021	99.9937	199.985
11.6525	100.021	99.9937	199.985
11.655	100.021	99.9938	199.985
11.6575	100.021	99.9938	199.985
11.66	100.021	99.9939	199.985
11.6625	100.021	99.9939	199.985
11.665	100.021	99.994	199.985
11.6675	100.021	99.994	199.985
11.67	100.021	99.9941	199.985
11.6725	100.021	99.9941	199.985
11.675	100.021	99.9942	199.985
11.6775	100.02	99.9943	199.985
11.68	100.02	99.9943	199.985
11.6825	100.02	99.9944	199.985
11.685	100.02	99.9944	199.985
11.6875	100.02	99.9945	199.985
11.69	100.02	99.9945	199.985
11.6925	100.02	99.9946	199.985
11.695	100.02	99.9946	199.985
11.6975	100.02	99.9947	199.985
11.7	100.02	99.9947	199.985
11.7025	100.02	99.9948	199.985
11.705	100.02	99.9948	199.985
11.7075	100.02	99.9949	199.985
11.71	100.02	99.9949	199.985
11.7125	100.02	99.995	199.985
11.715	100.02	99.995	199.985
11.7175	100.02	99.9951	199.985
11.72	100.02	99.9951	199.985
11.7225	100.019	99.9952	199.985
11.725	100.019	99.9952	199.985
11.7275	100.019	99.9952	199.985
11.73	100.019	99.9953	199.985
11.7325	100.019	99.9953	199.985
11.735	100.019	99.9954	199.985
11.7375	100.019	99.9954	199.985
11.74	100.019	99.9955	199.985
11.7425	100.019	99.9955	199.985
11.745	100.019	99.9956	199.985
11.7475	100.019	99.9956	199.985
11.75	100.019	99.9957	199.985
11.7525	100.019	99.9957	199.985
11.755	100.019	99.9958	199.985
11.7575	100.019	99.9958	199.985
11.76	100.019	99.9959	199.985
11.7625	100.019	99.9959	199.985
11.765	100.019	99.996	199.985
11.7675	100.018	99.996	199.986
11.77	100.018	99.9961	199.986
11.7725	100.018	99.9961	199.986
11.775	100.018	99.9961	199.986
11.7775	100.018	99.9962	199.986
11.78	100.018	99.9962	199.986
11.7825	100.018	99.9963	199.986
11.785	100.018	99.9963	199.986
11.7875	100.018	99.9964	199.986
11.79	100.018	99.9964	199.986
11.7925	100.018	99.9965	199.986
11.795	100.018	99.9965	199.986
11.7975	100.018	99.9965	199.986
11.8	100.018	99.9966	199.986
11.8025	100.018	99.9966	199.986
11.805	100.018	99.9967	199.986
11.8075	100.018	99.9967	199.986
11.81	100.018	99.9968	199.986
11.8125	100.018	99.9968	199.986
11.815	100.017	99.9969	199.986
11.8175	100.017	99.9969	199.986
11.82	100.017	99.9969	199.986
11.8225	100.017	99.997	199.986
11.825	100.017	99.997	199.986
11.8275	100.017	99.9971	199.986
11.83	100.017	99.9971	199.986
11.8325	100.017	99.9972	199.986
11.835	100.017	99.9972	199.986
11.8375	100.017	99.9972	199.986
11.84	100.017	99.9973	199.986
11.8425	100.017	99.9973	199.986
11.845	100.017	99.9974	199.986
11.8475	100.017	99.9974	199.986
11.85	100.017	99.9975	199.986
11.8525	100.017	99.9975	199.986
11.855	100.017	99.9975	199.986
11.8575	100.017	99.9976	199.986
11.86	100.017	99.9976	199.986
11.8625	100.016	99.9977	199.986
11.865	100.016	99.9977	199.986
11.8675	100.016	99.9977	199.986
11.87	100.016	99.9978	199.986
11.8725	100.016	99.9978	199.986
11.875	100.016	99.9979	199.986
11.8775	100.016	99.9979	199.986
11.88	100.016	99.9979	199.986
11.8825	100.016	99.998	199.986
11.885	100.016	99.998	199.986
11.8875	100.016	99.9981	199.986
11.89	100.016	99.9981	199.986
11.8925	100.016	99.9981	199.986
11.895	100.016	99.9982	199.986
11.8975	100.016	99.9982	199.986
11.9	100.016	99.9983	199.986
11.9025	100.016	99.9983	199.986
11.905	100.016	99.9983	199.986
11.9075	100.016	99.9984	199.986
11.91	100.015	99.9984	199.986
11.9125	100.015	99.9985	199.986
11.915	100.015	99.9985	199.986
11.9175	100.015	99.9985	199.986
11.92	100.015	99.9986	199.986
11.9225	100.015	99.9986	199.986
11.925	100.015	99.9987	199.986
11.9275	100.015	99.9987	199.986
11.93	100.015	99.9987	199.986
11.9325	100.015	99.9988	199.986
11.935	100.015	99.9988	199.986
11.9375	100.015	99.9988	199.986
11.94	100.015	99.9989	199.986
11.9425	100.015	99.9989	199.986
11.945	100.015	99.9989	199.986
11.9475	100.015	99.999	199.986
11.95	100.015	99.999	199.986
11.9525	100.015	99.9991	199.986
11.955	100.015	99.9991	199.986
11.9575	100.014	99.9991	199.986
11.96	100.014	99.9992	199.986
11.9625	100.014	99.9992	199.986
11.965	100.014	99.9992	199.986
11.9675	100.014	99.9993	199.986
11.97	100.014	99.9993	199.986
11.9725	100.014	99.9993	199.986
11.975	100.014	99.9994	199.987
11.9775	100.014	99.9994	199.987
11.98	100.014	99.9995	199.987
11.9825	100.014	99.9995	199.987
11.985	100.014	99.9995	199.987
11.9875	100.014	99.9996	199.987
11.99	100.014	99.9996	199.987
11.9925	100.014	99.9996	199.987
11.995	100.014	99.9997	199.987
11.9975	100.014	99.9997	199.987
12	100.014	99.9997	199.987
12.0025	100.014	99.9998	199.987
12.005	100.014	99.9998	199.987
12.0075	100.013	99.9998	199.987
12.01	100.013	99.9999	199.987
12.0125	100.013	99.9999	199.987
12.015	100.013	99.9999	199.987
12.0175	100.013	100	199.987
12.02	100.013	100	199.987
12.0225	100.013	100	199.987
12.025	100.013	100	199.987
12.0275	100.013	100	199.987
12.03	100.013	100	199.987
12.0325	100.013	100	199.987
12.035	100.013	100	199.987
12.0375	100.013	100	199.987
12.04	100.013	100	199.987
12.0425	100.013	100	199.987
12.045	100.013	100	199.987
12.0475	100.013	100	199.987
12.05	100.013	100	199.987
12.0525	100.013	100	199.987
12.055	100.013	100	199.987
12.0575	100.012	100	199.987
12.06	100.012	100.001	199.987
12.0625	100.012	100.001	199.987
12.065	100.012	100.001	199.987
12.0675	100.012	100.001	199.987
12.07	100.012	100.001	199.987
12.0725	100.012	100.001	199.987
12.075	100.012	100.001	199.987
12.0775	100.012	100.001	199.987
12.08	100.012	100.001	199.987
12.0825	100.012	100.001	199.987
12.085	100.012	100.001	199.987
12.0875	100.012	100.001	199.987
12.09	100.012	100.001	199.987
12.0925	100.012	100.001	199.987
12.095	100.012	100.001	199.987
12.0975	100.012	100.001	199.987
12.1	100.012	100.001	199.987
12.1025	100.012	100.001	199.987
12.105	100.012	100.001	199.987
12.1075	100.012	100.001	199.987
12.11	100.011	100.001	199.987
12.1125	100.011	100.001	199.987
12.115	100.011	100.001	199.987
12.1175	100.011	100.001	199.987
12.12	100.011	100.001	199.987
12.1225	100.011	100.001	199.988
12.125	100.011	100.001	199.988
12.1275	100.011	100.001	199.988
12.13	100.011	100.001	199.988
12.1325	100.011	100.001	199.988
12.135	100.011	100.001	199.988
12.1375	100.011	100.001	199.988
12.14	100.011	100.001	199.988
12.1425	100.011	100.001	199.988
12.145	100.011	100.001	199.988
12.1475	100.011	100.002	199.988
12.15	100.011	100.002	199.988
12.1525	100.011	100.002	199.988
12.155	100.011	100.002	199.988
12.1575	100.011	100.002	199.988
12.16	100.011	100.002	199.988
12.1625	100.01	100.002	199.988
12.165	100.01	100.002	199.988
12.1675	100.01	100.002	199.988
12.17	100.01	100.002	199.988
12.1725	100.01	100.002	199.988
12.175	100.01	100.002	199.988
12.1775	100.01	100.002	199.988
12.18	100.01	100.002	199.988
12.1825	100.01	100.002	199.988
12.185	100.01	100.002	199.988
12.1875	100.01	100.002	199.988
12.19	100.01	100.002	199.988
12.1925	100.01	100.002	199.988
12.195	100.01	100.002	199.988
12.1975	100.01	100.002	199.988
12.2	100.01	100.002	199.988
12.2025	100.01	100.002	199.988
12.205	100.01	100.002	199.988
12.2075	100.01	100.002	199.988
12.21	100.01	100.002	199.988
12.2125	100.01	100.002	199.988
12.215	100.01	100.002	199.988
12.2175	100.01	100.002	199.988
12.22	100.009	100.002	199.988
12.2225	100.009	100.002	199.988
12.225	100.009	100.002	199.988
12.2275	100.009	100.002	199.988
12.23	100.009	100.002	199.988
12.2325	100.009	100.002	199.988
12.235	100.009	100.002	199.988
12.2375	100.009	100.002	199.988
12.24	100.009	100.002	199.988
12.2425	100.009	100.002	199.988
12.245	100.009	100.002	199.988
12.2475	100.009	100.003	199.989
12.25	100.009	100.003	199.989
12.2525	100.009	100.003	199.989
12.255	100.009	100.003	199.989
12.2575	100.009	100.003	199.989
12.26	100.009	100.003	199.989
12.2625	100.009	100.003	199.989
12.265	100.009	100.003	199.989
12.2675	100.009	100.003	199.989
12.27	100.009	100.003	199.989
12.2725	100.009	100.003	199.989
12.275	100.009	100.003	199.989
12.2775	100.008	100.003	199.989
12.28	100.008	100.003	199.989
12.2825	100.008	100.003	199.989
12.285	100.008	100.003	199.989
12.2875	100.008	100.003	199.989
12.29	100.008	100.003	199.989
12.2925	100.008	100.003	199.989
12.295	100.008	100.003	199.989
12.2975	100.008	100.003	199.989
12.3	100.008	100.003	199.989
12.3025	100.008	100.003	199.989
12.305	100.008	100.003	199.989
12.3075	100.008	100.003	199.989
12.31	100.008	100.003	199.989
12.3125	100.008	100.003	199.989
12.315	100.008	100.003	199.989
12.3175	100.008	100.003	199.989
12.32	100.008	100.003	199.989
12.3225	100.008	100.003	199.989
12.325	100.008	100.003	199.989
12.3275	100.008	100.003	199.989
12.33	100.008	100.003	199.989
12.3325	100.008	100.003	199.989
12.335	100.008	100.003	199.989
12.3375	100.007	100.003	199.989
12.34	100.007	100.003	199.989
12.3425	100.007	100.003	199.989
12.345	100.007	100.003	199.989
12.3475	100.007	100.003	199.989
12.35	100.007	100.003	199.989
12.3525	100.007	100.003	199.989
12.355	100.007	100.003	199.989
12.3575	100.007	100.003	199.989
12.36	100.007	100.003	199.989
12.3625	100.007	100.003	199.989
12.365	100.007	100.003	199.989
12.3675	100.007	100.003	199.99
12.37	100.007	100.003	199.99
12.3725	100.007	100.004	199.99
12.375	100.007	100.004	199.99
12.3775	100.007	100.004	199.99
12.38	100.007	100.004	199.99
12.3825	100.007	100.004	199.99
12.385	100.007	100.004	199.99
12.3875	100.007	100.004	199.99
12.39	100.007	100.004	199.99
12.3925	100.007	100.004	199.99
12.395	100.007	100.004	199.99
12.3975	100.007	100.004	199.99
12.4	100.007	100.004	199.99
12.4025	100.006	100.004	199.99
12.405	100.006	100.004	199.99
12.4075	100.006	100.004	199.99
12.41	100.006	100.004	199.99
12.4125	100.006	100.004	199.99
12.415	100.006	100.004	199.99
12.4175	100.006	100.004	199.99
12.42	100.006	100.004	199.99
12.4225	100.006	100.004	199.99
12.425	100.006	100.004	199.99
12.4275	100.006	100.004	199.99
12.43	100.006	100.004	199.99
12.4325	100.006	100.004	199.99
12.435	100.006	100.004	199.99
12.4375	100.006	100.004	199.99
12.44	100.006	100.004	199.99
12.4425	100.006	100.004	199.99
12.445	100.006	100.004	199.99
12.4475	100.006	100.004	199.99
12.45	100.006	100.004	199.99
12.4525	100.006	100.004	199.99
12.455	100.006	100.004	199.99
12.4575	100.006	100.004	199.99
12.46	100.006	100.004	199.99
12.4625	100.006	100.004	199.99
12.465	100.006	100.004	199.99
12.4675	100.006	100.004	199.99
12.47	100.005	100.004	199.99
12.4725	100.005	100.004	199.99
12.475	100.005	100.004	199.99
12.4775	100.005	100.004	199.99
12.48	100.005	100.004	199.991
12.4825	100.005	100.004	199.991
12.485	100.005	100.004	199.991
12.4875	100.005	100.004	199.991
12.49	100.005	100.004	199.991
12.4925	100.005	100.004	199.991
12.495	100.005	100.004	199.991
12.4975	100.005	100.004	199.991
12.5	100.005	100.004	199.991
12.5025	100.005	100.004	199.991
12.505	100.005	100.004	199.991
12.5075	100.005	100.004	199.991
12.51	100.005	100.004	199.991
12.5125	100.005	100.004	199.991
12.515	100.005	100.004	199.991
12.5175	100.005	100.004	199.991
12.52	100.005	100.004	199.991
12.5225	100.005	100.004	199.991
12.525	100.005	100.004	199.991
12.5275	100.005	100.004	199.991
12.53	100.005	100.004	199.991
12.5325	100.005	100.004	199.991
12.535	100.005	100.004	199.991
12.5375	100.005	100.004	199.991
12.54	100.004	100.004	199.991
12.5425	100.004	100.004	199.991
12.545	100.004	100.004	199.991
12.5475	100.004	100.004	199.991
12.55	100.004	100.005	199.991
12.5525	100.004	100.005	199.991
12.555	100.004	100.005	199.991
12.5575	100.004	100.005	199.991
12.56	100.004	100.005	199.991
12.5625	100.004	100.005	199.991
12.565	100.004	100.005	199.991
12.5675	100.004	100.005	199.991
12.57	100.004	100.005	199.991
12.5725	100.004	100.005	199.991
12.575	100.004	100.005	199.991
12.5775	100.004	100.005	199.991
12.58	100.004	100.005	199.991
12.5825	100.004	100.005	199.991
12.585	100.004	100.005	199.991
12.5875	100.004	100.005	199.991
12.59	100.004	100.005	199.991
12.5925	100.004	100.005	199.992
12.595	100.004	100.005	199.992
12.5975	100.004	100.005	199.992
12.6	100.004	100.005	199.992
12.6025	100.004	100.005	199.992
12.605	100.004	100.005	199.992
12.6075	100.004	100.005	199.992
12.61	100.004	100.005	199.992
12.6125	100.004	100.005	199.992
12.615	100.004	100.005	199.992
12.6175	100.003	100.005	199.992
12.62	100.003	100.005	199.992
12.6225	100.003	100.005	199.992
12.625	100.003	100.005	199.992
12.6275	100.003	100.005	199.992
12.63	100.003	100.005	199.992
12.6325	100.003	100.005	199.992
12.635	100.003	100.005	199.992
12.6375	100.003	100.005	199.992
12.64	100.003	100.005	199.992
12.6425	100.003	100.005	199.992
12.645	100.003	100.005	199.992
12.6475	100.003	100.005	199.992
12.65	100.003	100.005	199.992
12.6525	100.003	100.005	199.992
12.655	100.003	100.005	199.992
12.6575	100.003	100.005	199.992
12.66	100.003	100.005	199.992
12.6625	100.003	100.005	199.992
12.665	100.003	100.005	199.992
12.6675	100.003	100.005	199.992
12.67	100.003	100.005	199.992
12.6725	100.003	100.005	199.992
12.675	100.003	100.005	199.992
12.6775	100.003	100.005	199.992
12.68	100.003	100.005	199.992
12.6825	100.003	100.005	199.992
12.685	100.003	100.005	199.992
12.6875	100.003	100.005	199.992
12.69	100.003	100.005	199.992
12.6925	100.003	100.005	199.992
12.695	100.003	100.005	199.992
12.6975	100.003	100.005	199.992
12.7	100.003	100.005	199.992
12.7025	100.002	100.005	199.992
12.705	100.002	100.005	199.993
12.7075	100.002	100.005	199.993
12.71	100.002	100.005	199.993
12.7125	100.002	100.005	199.993
12.715	100.002	100.005	199.993
12.7175	100.002	100.005	199.993
12.72	100.002	100.005	199.993
12.7225	100.002	100.005	199.993
12.725	100.002	100.005	199.993
12.7275	100.002	100.005	199.993
12.73	100.002	100.005	199.993
12.7325	100.002	100.005	199.993
12.735	100.002	100.005	199.993
12.7375	100.002	100.005	199.993
12.74	100.002	100.005	199.993
12.7425	100.002	100.005	199.993
12.745	100.002	100.005	199.993
12.7475	100.002	100.005	199.993
12.75	100.002	100.005	199.993
12.7525	100.002	100.005	199.993
12.755	100.002	100.005	199.993
12.7575	100.002	100.005	199.993
12.76	100.002	100.005	199.993
12.7625	100.002	100.005	199.993
12.765	100.002	100.005	199.993
12.7675	100.002	100.005	199.993
12.77	100.002	100.005	199.993
12.7725	100.002	100.005	199.993
12.775	100.002	100.005	199.993
12.7775	100.002	100.005	199.993
12.78	100.002	100.005	199.993
12.7825	100.002	100.005	199.993
12.785	100.002	100.005	199.993
12.7875	100.002	100.005	199.993
12.79	100.002	100.005	199.993
12.7925	100.002	100.005	199.993
12.795	100.002	100.005	199.993
12.7975	100.001	100.005	199.993
12.8	100.001	100.005	199.993
12.8025	100.001	100.005	199.993
12.805	100.001	100.005	199.993
12.8075	100.001	100.005	199.993
12.81	100.001	100.005	199.993
12.8125	100.001	100.005	199.993
12.815	100.001	100.005	199.993
12.8175	100.001	100.005	199.993
12.82	100.001	100.005	199.994
12.8225	100.001	100.005	199.994
12.825	100.001	100.005	199.994
12.8275	100.001	100.005	199.994
12.83	100.001	100.005	199.994
12.8325	100.001	100.005	199.994
12.835	100.001	100.005	199.994
12.8375	100.001	100.005	199.994
12.84	100.001	100.005	199.994
12.8425	100.001	100.005	199.994
12.845	100.001	100.005	199.994
12.8475	100.001	100.005	199.994
12.85	100.001	100.005	199.994
12.8525	100.001	100.005	199.994
12.855	100.001	100.005	199.994
12.8575	100.001	100.005	199.994
12.86	100.001	100.005	199.994
12.8625	100.001	100.005	199.994
12.865	100.001	100.005	199.994
12.8675	100.001	100.005	199.994
12.87	100.001	100.005	199.994
12.8725	100.001	100.005	199.994
12.875	100.001	100.005	199.994
12.8775	100.001	100.005	199.994
12.88	100.001	100.005	199.994
12.8825	100.001	100.005	199.994
12.885	100.001	100.005	199.994
12.8875	100.001	100.005	199.994
12.89	100.001	100.005	199.994
12.8925	100.001	100.005	199.994
12.895	100.001	100.005	199.994
12.8975	100.001	100.005	199.994
12.9	100.001	100.005	199.994
12.9025	100	100.005	199.994
12.905	100	100.005	199.994
12.9075	100	100.005	199.994
12.91	100	100.005	199.994
12.9125	100	100.005	199.994
12.915	100	100.005	199.994
12.9175	100	100.005	199.994
12.92	100	100.005	199.994
12.9225	100	100.005	199.994
12.925	100	100.005	199.994
12.9275	100	100.005	199.994
12.93	100	100.005	199.994
12.9325	100	100.005	199.994
12.935	100	100.005	199.994
12.9375	100	100.005	199.994
12.94	100	100.005	199.995
12.9425	100	100.005	199.995
12.945	100	100.005	199.995
12.9475	100	100.005	199.995
12.95	100	100.005	199.995
12.9525	100	100.005	199.995
12.955	100	100.005	199.995
12.9575	100	100.005	199.995
12.96	100	100.005	199.995
12.9625	100	100.005	199.995
12.965	100	100.005	199.995
12.9675	100	100.005	199.995
12.97	99.9999	100.005	199.995
12.9725	99.9999	100.005	199.995
12.975	99.9999	100.005	199.995
12.9775	99.9999	100.005	199.995
12.98	99.9999	100.005	199.995
12.9825	99.9998	100.005	199.995
12.985	99.9998	100.005	199.995
12.9875	99.9998	100.005	199.995
12.99	99.9998	100.005	199.995
12.9925	99.9998	100.005	199.995
12.995	99.9997	100.005	199.995
12.9975	99.9997	100.005	199.995
13	99.9997	100.005	199.995
13.0025	99.9997	100.005	199.995
13.005	99.9997	100.005	199.995
13.0075	99.9996	100.005	199.995
13.01	99.9996	100.005	199.995
13.0125	99.9996	100.005	199.995
13.015	99.9996	100.005	199.995
13.0175	99.9996	100.005	199.995
13.02	99.9996	100.005	199.995
13.0225	99.9995	100.005	199.995
13.025	99.9995	100.005	199.995
13.0275	99.9995	100.005	199.995
13.03	99.9995	100.005	199.995
13.0325	99.9995	100.005	199.995
13.035	99.9994	100.005	199.995
13.0375	99.9994	100.005	199.995
13.04	99.9994	100.005	199.995
13.0425	99.9994	100.005	199.995
13.045	99.9994	100.005	199.995
13.0475	99.9994	100.005	199.995
13.05	99.9993	100.005	199.995
13.0525	99.9993	100.005	199.995
13.055	99.9993	100.005	199.995
13.0575	99.9993	100.005	199.995
13.06	99.9993	100.005	199.995
13.0625	99.9993	100.005	199.995
13.065	99.9992	100.005	199.995
13.0675	99.9992	100.005	199.995
13.07	99.9992	100.005	199.996
13.0725	99.9992	100.005	199.996
13.075	99.9992	100.005	199.996
13.0775	99.9992	100.005	199.996
13.08	99.9991	100.005	199.996
13.0825	99.9991	100.005	199.996
13.085	99.9991	100.005	199.996
13.0875	99.9991	100.005	199.996
13.09	99.9991	100.005	199.996
13.0925	99.9991	100.005	199.996
13.095	99.999	100.005	199.996
13.0975	99.999	100.005	199.996
13.1	99.999	100.005	199.996
13.1025	99.999	100.005	199.996
13.105	99.999	100.005	199.996
13.1075	99.999	100.005	199.996
13.11	99.9989	100.005	199.996
13.1125	99.9989	100.005	199.996
13.115	99.9989	100.005	199.996
13.1175	99.9989	100.005	199.996
13.12	99.9989	100.005	199.996
13.1225	99.9989	100.005	199.996
13.125	99.9989	100.005	199.996
13.1275	99.9988	100.005	199.996
13.13	99.9988	100.005	199.996
13.1325	99.9988	100.005	199.996
13.135	99.9988	100.005	199.996
13.1375	99.9988	100.005	199.996
13.14	99.9988	100.005	199.996
13.1425	99.9987	100.005	199.996
13.145	99.9987	100.005	199.996
13.1475	99.9987	100.005	199.996
13.15	99.9987	100.005	199.996
13.1525	99.9987	100.005	199.996
13.155	99.9987	100.005	199.996
13.1575	99.9987	100.005	199.996
13.16	99.9986	100.005	199.996
13.1625	99.9986	100.005	199.996
13.165	99.9986	100.005	199.996
13.1675	99.9986	100.005	199.996
13.17	99.9986	100.005	199.996
13.1725	99.9986	100.005	199.996
13.175	99.9986	100.005	199.996
13.1775	99.9985	100.005	199.996
13.18	99.9985	100.005	199.996
13.1825	99.9985	100.005	199.996
13.185	99.9985	100.005	199.996
13.1875	99.9985	100.005	199.996
13.19	99.9985	100.005	199.996
13.1925	99.9985	100.005	199.996
13.195	99.9985	100.005	199.996
13.1975	99.9984	100.005	199.996
13.2	99.9984	100.005	199.996
13.2025	99.9984	100.005	199.996
13.205	99.9984	100.005	199.996
13.2075	99.9984	100.005	199.997
13.21	99.9984	100.005	199.997
13.2125	99.9984	100.005	199.997
13.215	99.9983	100.005	199.997
13.2175	99.9983	100.005	199.997
13.22	99.9983	100.005	199.997
13.2225	99.9983	100.005	199.997
13.225	99.9983	100.005	199.997
13.2275	99.9983	100.005	199.997
13.23	99.9983	100.005	199.997
13.2325	99.9983	100.005	199.997
13.235	99.9982	100.005	199.997
13.2375	99.9982	100.005	199.997
13.24	99.9982	100.005	199.997
13.2425	99.9982	100.005	199.997
13.245	99.9982	100.005	199.997
13.2475	99.9982	100.005	199.997
13.25	99.9982	100.005	199.997
13.2525	99.9982	100.005	199.997
13.255	99.9981	100.005	199.997
13.2575	99.9981	100.005	199.997
13.26	99.9981	100.005	199.997
13.2625	99.9981	100.005	199.997
13.265	99.9981	100.005	199.997
13.2675	99.9981	100.005	199.997
13.27	99.9981	100.005	199.997
13.2725	99.9981	100.005	199.997
13.275	99.9981	100.005	199.997
13.2775	99.998	100.005	199.997
13.28	99.998	100.005	199.997
13.2825	99.998	100.005	199.997
13.285	99.998	100.005	199.997
13.2875	99.998	100.005	199.997
13.29	99.998	100.005	199.997
13.2925	99.998	100.005	199.997
13.295	99.998	100.005	199.997
13.2975	99.998	100.005	199.997
13.3	99.9979	100.005	199.997
13.3025	99.9979	100.005	199.997
13.305	99.9979	100.005	199.997
13.3075	99.9979	100.005	199.997
13.31	99.9979	100.005	199.997
13.3125	99.9979	100.005	199.997
13.315	99.9979	100.005	199.997
13.3175	99.9979	100.005	199.997
13.32	99.9979	100.005	199.997
13.3225	99.9978	100.005	199.997
13.325	99.9978	100.005	199.997
13.3275	99.9978	100.005	199.997
13.33	99.9978	100.005	199.997
13.3325	99.9978	100.005	199.997
13.335	99.9978	100.005	199.997
13.3375	99.9978	100.005	199.997
13.34	99.9978	100.005	199.997
13.3425	99.9978	100.005	199.997
13.345	99.9978	100.005	199.997
13.3475	99.9977	100.005	199.997
13.35	99.9977	100.005	199.997
13.3525	99.9977	100.005	199.997
13.355	99.9977	100.005	199.997
13.3575	99.9977	100.005	199.997
13.36	99.9977	100.005	199.997
13.3625	99.9977	100.005	199.998
13.365	99.9977	100.005	199.998
13.3675	99.9977	100.005	199.998
13.37	99.9977	100.005	199.998
13.3725	99.9977	100.005	199.998
13.375	99.9976	100.005	199.998
13.3775	99.9976	100.005	199.998
13.38	99.9976	100.005	199.998
13.3825	99.9976	100.005	199.998
13.385	99.9976	100.005	199.998
13.3875	99.9976	100.005	199.998
13.39	99.9976	100.005	199.998
13.3925	99.9976	100.005	199.998
13.395	99.9976	100.005	199.998
13.3975	99.9976	100.005	199.998
13.4	99.9976	100.005	199.998
13.4025	99.9975	100.005	199.998
13.405	99.9975	100.005	199.998
13.4075	99.9975	100.005	199.998
13.41	99.9975	100.005	199.998
13.4125	99.9975	100.005	199.998
13.415	99.9975	100.005	199.998
13.4175	99.9975	100.005	199.998
13.42	99.9975	100.005	199.998
13.4225	99.9975	100.005	199.998
13.425	99.9975	100.005	199.998
13.4275	99.9975	100.005	199.998
13.43	99.9975	100.005	199.998
13.4325	99.9975	100.005	199.998
13.435	99.9974	100.005	199.998
13.4375	99.9974	100.005	199.998
13.44	99.9974	100.005	199.998
13.4425	99.9974	100.005	199.998
13.445	99.9974	100.005	199.998
13.4475	99.9974	100.005	199.998
13.45	99.9974	100.005	199.998
13.4525	99.9974	100.005	199.998
13.455	99.9974	100.005	199.998
13.4575	99.9974	100.005	199.998
13.46	99.9974	100.005	199.998
13.4625	99.9974	100.005	199.998
13.465	99.9974	100.005	199.998
13.4675	99.9973	100.005	199.998
13.47	99.9973	100.005	199.998
13.4725	99.9973	100.005	199.998
13.475	99.9973	100.005	199.998
13.4775	99.9973	100.005	199.998
13.48	99.9973	100.005	199.998
13.4825	99.9973	100.005	199.998
13.485	99.9973	100.004	199.998
13.4875	99.9973	100.004	199.998
13.49	99.9973	100.004	199.998
13.4925	99.9973	100.004	199.998
13.495	99.9973	100.004	199.998
13.4975	99.9973	100.004	199.998
13.5	99.9973	100.004	199.998
13.5025	99.9973	100.004	199.998
13.505	99.9972	100.004	199.998
13.5075	99.9972	100.004	199.998
13.51	99.9972	100.004	199.998
13.5125	99.9972	100.004	199.998
13.515	99.9972	100.004	199.998
13.5175	99.9972	100.004	199.998
13.52	99.9972	100.004	199.998
13.5225	99.9972	100.004	199.998
13.525	99.9972	100.004	199.998
13.5275	99.9972	100.004	199.998
13.53	99.9972	100.004	199.998
13.5325	99.9972	100.004	199.998
13.535	99.9972	100.004	199.998
13.5375	99.9972	100.004	199.998
13.54	99.9972	100.004	199.998
13.5425	99.9972	100.004	199.999
13.545	99.9972	100.004	199.999
13.5475	99.9971	100.004	199.999
13.55	99.9971	100.004	199.999
13.5525	99.9971	100.004	199.999
13.555	99.9971	100.004	199.999
13.5575	99.9971	100.004	199.999
13.56	99.9971	100.004	199.999
13.5625	99.9971	100.004	199.999
13.565	99.9971	100.004	199.999
13.5675	99.9971	100.004	199.999
13.57	99.9971	100.004	199.999
13.5725	99.9971	100.004	199.999
13.575	99.9971	100.004	199.999
13.5775	99.9971	100.004	199.999
13.58	99.9971	100.004	199.999
13.5825	99.9971	100.004	199.999
13.585	99.9971	100.004	199.999
13.5875	99.9971	100.004	199.999
13.59	99.9971	100.004	199.999
13.5925	99.9971	100.004	199.999
13.595	99.997	100.004	199.999
13.5975	99.997	100.004	199.999
13.6	99.997	100.004	199.999
13.6025	99.997	100.004	199.999
13.605	99.997	100.004	199.999
13.6075	99.997	100.004	199.999
13.61	99.997	100.004	199.999
13.6125	99.997	100.004	199.999
13.615	99.997	100.004	199.999
13.6175	99.997	100.004	199.999
13.62	99.997	100.004	199.999
13.6225	99.997	100.004	199.999
13.625	99.997	100.004	199.999
13.6275	99.997	100.004	199.999
13.63	99.997	100.004	199.999
13.6325	99.997	100.004	199.999
13.635	99.997	100.004	199.999
13.6375	99.997	100.004	199.999
13.64	99.997	100.004	199.999
13.6425	99.997	100.004	199.999
13.645	99.997	100.004	199.999
13.6475	99.997	100.004	199.999
13.65	99.997	100.004	199.999
13.6525	99.997	100.004	199.999
13.655	99.997	100.004	199.999
13.6575	99.9969	100.004	199.999
13.66	99.9969	100.004	199.999
13.6625	99.9969	100.004	199.999
13.665	99.9969	100.004	199.999
13.6675	99.9969	100.004	199.999
13.67	99.9969	100.004	199.999
13.6725	99.9969	100.004	199.999
13.675	99.9969	100.004	199.999
13.6775	99.9969	100.004	199.999
13.68	99.9969	100.004	199.999
13.6825	99.9969	100.004	199.999
13.685	99.9969	100.004	199.999
13.6875	99.9969	100.004	199.999
13.69	99.9969	100.004	199.999
13.6925	99.9969	100.004	199.999
13.695	99.9969	100.004	199.999
13.6975	99.9969	100.004	199.999
13.7	99.9969	100.004	199.999
13.7025	99.9969	100.004	199.999
13.705	99.9969	100.004	199.999
13.7075	99.9969	100.004	199.999
13.71	99.9969	100.004	199.999
13.7125	99.9969	100.004	199.999
13.715	99.9969	100.004	199.999
13.7175	99.9969	100.004	199.999
13.72	99.9969	100.004	199.999
13.7225	99.9969	100.004	199.999
13.725	99.9969	100.004	199.999
13.7275	99.9969	100.004	199.999
13.73	99.9969	100.004	199.999
13.7325	99.9969	100.004	199.999
13.735	99.9969	100.004	199.999
13.7375	99.9969	100.004	199.999
13.74	99.9969	100.004	199.999
13.7425	99.9969	100.004	199.999
13.745	99.9968	100.004	199.999
13.7475	99.9968	100.004	199.999
13.75	99.9968	100.004	199.999
13.7525	99.9968	100.004	199.999
13.755	99.9968	100.004	199.999
13.7575	99.9968	100.004	199.999
13.76	99.9968	100.004	199.999
13.7625	99.9968	100.004	199.999
13.765	99.9968	100.004	200
13.7675	99.9968	100.004	200
13.77	99.9968	100.004	200
13.7725	99.9968	100.004	200
13.775	99.9968	100.004	200
13.7775	99.9968	100.004	200
13.78	99.9968	100.004	200
13.7825	99.9968	100.004	200
13.785	99.9968	100.004	200
13.7875	99.9968	100.004	200
13.79	99.9968	100.004	200
13.7925	99.9968	100.004	200
13.795	99.9968	100.004	200
13.7975	99.9968	100.004	200
13.8	99.9968	100.004	200
13.8025	99.9968	100.004	200
13.805	99.9968	100.004	200
13.8075	99.9968	100.004	200
13.81	99.9968	100.004	200
13.8125	99.9968	100.004	200
13.815	99.9968	100.004	200
13.8175	99.9968	100.003	200
13.82	99.9968	100.003	200
13.8225	99.9968	100.003	200
13.825	99.9968	100.003	200
13.8275	99.9968	100.003	200
13.83	99.9968	100.003	200
13.8325	99.9968	100.003	200
13.835	99.9968	100.003	200
13.8375	99.9968	100.003	200
13.84	99.9968	100.003	200
13.8425	99.9968	100.003	200
13.845	99.9968	100.003	200
13.8475	99.9968	100.003	200
13.85	99.9968	100.003	200
13.8525	99.9968	100.003	200
13.855	99.9968	100.003	200
13.8575	99.9968	100.003	200
13.86	99.9968	100.003	200
13.8625	99.9968	100.003	200
13.865	99.9968	100.003	200
13.8675	99.9968	100.003	200
13.87	99.9968	100.003	200
13.8725	99.9968	100.003	200
13.875	99.9968	100.003	200
13.8775	99.9968	100.003	200
13.88	99.9968	100.003	200
13.8825	99.9968	100.003	200
13.885	99.9968	100.003	200
13.8875	99.9968	100.003	200
13.89	99.9968	100.003	200
13.8925	99.9968	100.003	200
13.895	99.9968	100.003	200
13.8975	99.9968	100.003	200
13.9	99.9968	100.003	200
13.9025	99.9968	100.003	200
13.905	99.9968	100.003	200
13.9075	99.9968	100.003	200
13.91	99.9968	100.003	200
13.9125	99.9968	100.003	200
13.915	99.9968	100.003	200
13.9175	99.9968	100.003	200
13.92	99.9968	100.003	200
13.9225	99.9968	100.003	200
13.925	99.9968	100.003	200
13.9275	99.9968	100.003	200
13.93	99.9968	100.003	200
13.9325	99.9968	100.003	200
13.935	99.9968	100.003	200
13.9375	99.9968	100.003	200
13.94	99.9968	100.003	200
13.9425	99.9968	100.003	200
13.945	99.9968	100.003	200
13.9475	99.9968	100.003	200
13.95	99.9968	100.003	200
13.9525	99.9968	100.003	200
13.955	99.9968	100.003	200
13.9575	99.9968	100.003	200
13.96	99.9968	100.003	200
13.9625	99.9968	100.003	200
13.965	99.9968	100.003	200
13.9675	99.9968	100.003	200
13.97	99.9968	100.003	200
13.9725	99.9968	100.003	200
13.975	99.9968	100.003	200
13.9775	99.9968	100.003	200
13.98	99.9968	100.003	200
13.9825	99.9968	100.003	200
13.985	99.9968	100.003	200
13.9875	99.9968	100.003	200
13.99	99.9968	100.003	200
13.9925	99.9968	100.003	200
13.995	99.9968	100.003	200
13.9975	99.9968	100.003	200
14	99.9968	100.003	200
14.0025	99.9968	100.003	200
14.005	99.9968	100.003	200
14.0075	99.9968	100.003	200
14.01	99.9968	100.003	200
14.0125	99.9968	100.003	200
14.015	99.9968	100.003	200
14.0175	99.9968	100.003	200
14.02	99.9968	100.003	200
14.0225	99.9968	100.003	200
14.025	99.9968	100.003	200
14.0275	99.9968	100.003	200
14.03	99.9968	100.003	200
14.0325	99.9968	100.003	200
14.035	99.9968	100.003	200
14.0375	99.9968	100.003	200
14.04	99.9968	100.003	200
14.0425	99.9968	100.003	200
14.045	99.9968	100.003	200
14.0475	99.9968	100.003	200
14.05	99.9968	100.003	200
14.0525	99.9968	100.003	200
14.055	99.9968	100.003	200
14.0575	99.9968	100.003	200
14.06	99.9968	100.003	200
14.0625	99.9968	100.003	200
14.065	99.9968	100.003	200
14.0675	99.9968	100.003	200
14.07	99.9968	100.003	200
14.0725	99.9968	100.003	200
14.075	99.9968	100.003	200
14.0775	99.9968	100.003	200
14.08	99.9969	100.003	200
14.0825	99.9969	100.003	200.001
14.085	99.9969	100.003	200.001
14.0875	99.9969	100.003	200.001
14.09	99.9969	100.003	200.001
14.0925	99.9969	100.003	200.001
14.095	99.9969	100.003	200.001
14.0975	99.9969	100.003	200.001
14.1	99.9969	100.003	200.001
14.1025	99.9969	100.003	200.001
14.105	99.9969	100.003	200.001
14.1075	99.9969	100.003	200.001
14.11	99.9969	100.003	200.001
14.1125	99.9969	100.003	200.001
14.115	99.9969	100.003	200.001
14.1175	99.9969	100.003	200.001
14.12	99.9969	100.003	200.001
14.1225	99.9969	100.003	200.001
14.125	99.9969	100.003	200.001
14.1275	99.9969	100.003	200.001
14.13	99.9969	100.002	200.001
14.1325	99.9969	100.002	200.001
14.135	99.9969	100.002	200.001
14.1375	99.9969	100.002	200.001
14.14	99.9969	100.002	200.001
14.1425	99.9969	100.002	200.001
14.145	99.9969	100.002	200.001
14.1475	99.9969	100.002	200.001
14.15	99.9969	100.002	200.001
14.1525	99.9969	100.002	200.001
14.155	99.9969	100.002	200.001
14.1575	99.9969	100.002	200.001
14.16	99.9969	100.002	200.001
14.1625	99.9969	100.002	200.001
14.165	99.9969	100.002	200.001
14.1675	99.9969	100.002	200.001
14.17	99.9969	100.002	200.001
14.1725	99.9969	100.002	200.001
14.175	99.9969	100.002	200.001
14.1775	99.9969	100.002	200.001
14.18	99.9969	100.002	200.001
14.1825	99.9969	100.002	200.001
14.185	99.9969	100.002	200.001
14.1875	99.997	100.002	200.001
14.19	99.997	100.002	200.001
14.1925	99.997	100.002	200.001
14.195	99.997	100.002	200.001
14.1975	99.997	100.002	200.001
14.2	99.997	100.002	200.001
14.2025	99.997	100.002	200.001
14.205	99.997	100.002	200.001
14.2075	99.997	100.002	200.001
14.21	99.997	100.002	200.001
14.2125	99.997	100.002	200.001
14.215	99.997	100.002	200.001
14.2175	99.997	100.002	200.001
14.22	99.997	100.002	200.001
14.2225	99.997	100.002	200.001
14.225	99.997	100.002	200.001
14.2275	99.997	100.002	200.001
14.23	99.997	100.002	200.001
14.2325	99.997	100.002	200.001
14.235	99.997	100.002	200.001
14.2375	99.997	100.002	200.001
14.24	99.997	100.002	200.001
14.2425	99.997	100.002	200.001
14.245	99.997	100.002	200.001
14.2475	99.997	100.002	200.001
14.25	99.997	100.002	200.001
14.2525	99.997	100.002	200.001
14.255	99.997	100.002	200.001
14.2575	99.997	100.002	200.001
14.26	99.997	100.002	200.001
14.2625	99.997	100.002	200.001
14.265	99.997	100.002	200.001
14.2675	99.997	100.002	200.001
14.27	99.9971	100.002	200.001
14.2725	99.9971	100.002	200.001
14.275	99.9971	100.002	200.001
14.2775	99.9971	100.002	200.001
14.28	99.9971	100.002	200.001
14.2825	99.9971	100.002	200.001
14.285	99.9971	100.002	200.001
14.2875	99.9971	100.002	200.001
14.29	99.9971	100.002	200.001
14.2925	99.9971	100.002	200.001
14.295	99.9971	100.002	200.001
14.2975	99.9971	100.002	200.001
14.3	99.9971	100.002	200.001
14.3025	99.9971	100.002	200.001
14.305	99.9971	100.002	200.001
14.3075	99.9971	100.002	200.001
14.31	99.9971	100.002	200.001
14.3125	99.9971	100.002	200.001
14.315	99.9971	100.002	200.001
14.3175	99.9971	100.002	200.001
14.32	99.9971	100.002	200.001
14.3225	99.9971	100.002	200.001
14.325	99.9971	100.002	200.001
14.3275	99.9971	100.002	200.001
14.33	99.9971	100.002	200.001
14.3325	99.9971	100.002	200.001
14.335	99.9971	100.002	200.001
14.3375	99.9971	100.002	200.001
14.34	99.9971	100.002	200.001
14.3425	99.9972	100.002	200.001
14.345	99.9972	100.002	200.001
14.3475	99.9972	100.002	200.001
14.35	99.9972	100.002	200.001
14.3525	99.9972	100.002	200.001
14.355	99.9972	100.002	200.001
14.3575	99.9972	100.002	200.001
14.36	99.9972	100.002	200.001
14.3625	99.9972	100.002	200.001
14.365	99.9972	100.002	200.001
14.3675	99.9972	100.002	200.001
14.37	99.9972	100.002	200.001
14.3725	99.9972	100.002	200.001
14.375	99.9972	100.002	200.001
14.3775	99.9972	100.002	200.001
14.38	99.9972	100.002	200.001
14.3825	99.9972	100.002	200.001
14.385	99.9972	100.002	200.001
14.3875	99.9972	100.002	200.001
14.39	99.9972	100.002	200.001
14.3925	99.9972	100.002	200.001
14.395	99.9972	100.002	200.001
14.3975	99.9972	100.002	200.001
14.4	99.9972	100.002	200.001
14.4025	99.9972	100.002	200.001
14.405	99.9972	100.002	200.001
14.4075	99.9973	100.002	200.001
14.41	99.9973	100.002	200.001
14.4125	99.9973	100.002	200.001
14.415	99.9973	100.002	200.001
14.4175	99.9973	100.002	200.001
14.42	99.9973	100.002	200.001
14.4225	99.9973	100.002	200.001
14.425	99.9973	100.002	200.001
14.4275	99.9973	100.002	200.001
14.43	99.9973	100.002	200.001
14.4325	99.9973	100.002	200.001
14.435	99.9973	100.002	200.001
14.4375	99.9973	100.002	200.001
14.44	99.9973	100.002	200.001
14.4425	99.9973	100.002	200.001
14.445	99.9973	100.002	200.001
14.4475	99.9973	100.002	200.001
14.45	99.9973	100.002	200.001
14.4525	99.9973	100.002	200.001
14.455	99.9973	100.002	200.001
14.4575	99.9973	100.002	200.001
14.46	99.9973	100.002	200.001
14.4625	99.9973	100.002	200.001
14.465	99.9973	100.002	200.001
14.4675	99.9974	100.002	200.001
14.47	99.9974	100.002	200.001
14.4725	99.9974	100.002	200.001
14.475	99.9974	100.001	200.001
14.4775	99.9974	100.001	200.001
14.48	99.9974	100.001	200.001
14.4825	99.9974	100.001	200.001
14.485	99.9974	100.001	200.001
14.4875	99.9974	100.001	200.001
14.49	99.9974	100.001	200.001
14.4925	99.9974	100.001	200.001
14.495	99.9974	100.001	200.001
14.4975	99.9974	100.001	200.001
14.5	99.9974	100.001	200.001
14.5025	99.9974	100.001	200.001
14.505	99.9974	100.001	200.001
14.5075	99.9974	100.001	200.001
14.51	99.9974	100.001	200.001
14.5125	99.9974	100.001	200.001
14.515	99.9974	100.001	200.001
14.5175	99.9974	100.001	200.001
14.52	99.9974	100.001	200.001
14.5225	99.9974	100.001	200.001
14.525	99.9975	100.001	200.001
14.5275	99.9975	100.001	200.001
14.53	99.9975	100.001	200.001
14.5325	99.9975	100.001	200.001
14.535	99.9975	100.001	200.001
14.5375	99.9975	100.001	200.001
14.54	99.9975	100.001	200.001
14.5425	99.9975	100.001	200.001
14.545	99.9975	100.001	200.001
14.5475	99.9975	100.001	200.001
14.55	99.9975	100.001	200.001
14.5525	99.9975	100.001	200.001
14.555	99.9975	100.001	200.001
14.5575	99.9975	100.001	200.001
14.56	99.9975	100.001	200.001
14.5625	99.9975	100.001	200.001
14.565	99.9975	100.001	200.001
14.5675	99.9975	100.001	200.001
14.57	99.9975	100.001	200.001
14.5725	99.9975	100.001	200.001
14.575	99.9975	100.001	200.001
14.5775	99.9975	100.001	200.001
14.58	99.9975	100.001	200.001
14.5825	99.9976	100.001	200.001
14.585	99.9976	100.001	200.001
14.5875	99.9976	100.001	200.001
14.59	99.9976	100.001	200.001
14.5925	99.9976	100.001	200.001
14.595	99.9976	100.001	200.001
14.5975	99.9976	100.001	200.001
14.6	99.9976	100.001	200.001
14.6025	99.9976	100.001	200.001
14.605	99.9976	100.001	200.001
14.6075	99.9976	100.001	200.001
14.61	99.9976	100.001	200.001
14.6125	99.9976	100.001	200.001
14.615	99.9976	100.001	200.001
14.6175	99.9976	100.001	200.001
14.62	99.9976	100.001	200.001
14.6225	99.9976	100.001	200.001
14.625	99.9976	100.001	200.001
14.6275	99.9976	100.001	200.001
14.63	99.9976	100.001	200.001
14.6325	99.9976	100.001	200.001
14.635	99.9977	100.001	200.001
14.6375	99.9977	100.001	200.001
14.64	99.9977	100.001	200.001
14.6425	99.9977	100.001	200.001
14.645	99.9977	100.001	200.001
14.6475	99.9977	100.001	200.001
14.65	99.9977	100.001	200.001
14.6525	99.9977	100.001	200.001
14.655	99.9977	100.001	200.001
14.6575	99.9977	100.001	200.001
14.66	99.9977	100.001	200.001
14.6625	99.9977	100.001	200.001
14.665	99.9977	100.001	200.001
14.6675	99.9977	100.001	200.001
14.67	99.9977	100.001	200.001
14.6725	99.9977	100.001	200.001
14.675	99.9977	100.001	200.001
14.6775	99.9977	100.001	200.001
14.68	99.9977	100.001	200.001
14.6825	99.9977	100.001	200.001
14.685	99.9977	100.001	200.001
14.6875	99.9978	100.001	200.001
14.69	99.9978	100.001	200.001
14.6925	99.9978	100.001	200.001
14.695	99.9978	100.001	200.001
14.6975	99.9978	100.001	200.001
14.7	99.9978	100.001	200.001
14.7025	99.9978	100.001	200.001
14.705	99.9978	100.001	200.001
14.7075	99.9978	100.001	200.001
14.71	99.9978	100.001	200.001
14.7125	99.9978	100.001	200.001
14.715	99.9978	100.001	200.001
14.7175	99.9978	100.001	200.001
14.72	99.9978	100.001	200.001
14.7225	99.9978	100.001	200.001
14.725	99.9978	100.001	200.001
14.7275	99.9978	100.001	200.001
14.73	99.9978	100.001	200.001
14.7325	99.9978	100.001	200.001
14.735	99.9978	100.001	200.001
14.7375	99.9978	100.001	200.001
14.74	99.9979	100.001	200.001
14.7425	99.9979	100.001	200.001
14.745	99.9979	100.001	200.001
14.7475	99.9979	100.001	200.001
14.75	99.9979	100.001	200.001
14.7525	99.9979	100.001	200.001
14.755	99.9979	100.001	200.001
14.7575	99.9979	100.001	200.001
14.76	99.9979	100.001	200.001
14.7625	99.9979	100.001	200.001
14.765	99.9979	100.001	200.001
14.7675	99.9979	100.001	200.001
14.77	99.9979	100.001	200.001
14.7725	99.9979	100.001	200.001
14.775	99.9979	100.001	200.001
14.7775	99.9979	100.001	200.001
14.78	99.9979	100.001	200.001
14.7825	99.9979	100.001	200.001
14.785	99.9979	100.001	200.001
14.7875	99.9979	100.001	200.001
14.79	99.9979	100.001	200.001
14.7925	99.998	100.001	200.001
14.795	99.998	100.001	200.001
14.7975	99.998	100.001	200.001
14.8	99.998	100.001	200.001
14.8025	99.998	100.001	200.001
14.805	99.998	100.001	200.001
14.8075	99.998	100.001	200.001
14.81	99.998	100.001	200.001
14.8125	99.998	100.001	200.001
14.815	99.998	100.001	200.001
14.8175	99.998	100.001	200.001
14.82	99.998	100.001	200.001
14.8225	99.998	100.001	200.001
14.825	99.998	100.001	200.001
14.8275	99.998	100.001	200.001
14.83	99.998	100.001	200.001
14.8325	99.998	100.001	200.001
14.835	99.998	100.001	200.001
14.8375	99.998	100.001	200.001
14.84	99.998	100.001	200.001
14.8425	99.9981	100.001	200.001
14.845	99.9981	100.001	200.001
14.8475	99.9981	100.001	200.001
14.85	99.9981	100.001	200.001
14.8525	99.9981	100.001	200.001
14.855	99.9981	100.001	200.001
14.8575	99.9981	100.001	200.001
14.86	99.9981	100.001	200.001
14.8625	99.9981	100.001	200.001
14.865	99.9981	100.001	200.001
14.8675	99.9981	100.001	200.001
14.87	99.9981	100.001	200.001
14.8725	99.9981	100.001	200.001
14.875	99.9981	100.001	200.001
14.8775	99.9981	100.001	200.001
14.88	99.9981	100.001	200.001
14.8825	99.9981	100.001	200.001
14.885	99.9981	100.001	200.001
14.8875	99.9981	100.001	200.001
14.89	99.9981	100.001	200.001
14.8925	99.9981	100.001	200.001
14.895	99.9982	100.001	200.001
14.8975	99.9982	100.001	200.001
14.9	99.9982	100.001	200.001
14.9025	99.9982	100.001	200.001
14.905	99.9982	100.001	200.001
14.9075	99.9982	100.001	200.001
14.91	99.9982	100.001	200.001
14.9125	99.9982	100.001	200.001
14.915	99.9982	100.001	200.001
14.9175	99.9982	100.001	200.001
14.92	99.9982	100.001	200.001
14.9225	99.9982	100.001	200.001
14.925	99.9982	100	200.001
14.9275	99.9982	100	200.001
14.93	99.9982	100	200.001
14.9325	99.9982	100	200.001
14.935	99.9982	100	200.001
14.9375	99.9982	100	200.001
14.94	99.9982	100	200.001
14.9425	99.9982	100	200.001
14.945	99.9982	100	200.001
14.9475	99.9983	100	200.001
14.95	99.9983	100	200.001
14.9525	99.9983	100	200.001
14.955	99.9983	100	200.001
14.9575	99.9983	100	200.001
14.96	99.9983	100	200.001
14.9625	99.9983	100	200.001
14.965	99.9983	100	200.001
14.9675	99.9983	100	200.001
14.97	99.9983	100	200.001
14.9725	99.9983	100	200.001
14.975	99.9983	100	200.001
14.9775	99.9983	100	200.001
14.98	99.9983	100	200.001
14.9825	99.9983	100	200.001
14.985	99.9983	100	200.001
14.9875	99.9983	100	200.001
14.99	99.9983	100	200.001
14.9925	99.9983	100	200.001
14.995	99.9983	100	200.001
14.9975	99.9984	100	200.001
15	99.9984	100	200.001
