# N = 400
# (S0, I0, R0) = (5, 293.75, 101.25)
# (a, b, c) = (4, 1, 0.5)
# time, S, I, R
0	5	293.75	101.25
0.0025	5.08994	293.054	101.857
0.005	5.18006	292.359	102.461
0.0075	5.27037	291.667	103.062
0.01	5.36086	290.978	103.661
0.0125	5.45153	290.291	104.258
0.015	5.54238	289.606	104.852
0.0175	5.6334	288.923	105.444
0.02	5.72461	288.242	106.033
0.0225	5.81598	287.564	106.62
0.025	5.90753	286.888	107.204
0.0275	5.99926	286.214	107.786
0.03	6.09115	285.543	108.366
0.0325	6.18321	284.874	108.943
0.035	6.27543	284.207	109.518
0.0375	6.36783	283.542	110.09
0.04	6.46038	282.879	110.66
0.0425	6.5531	282.219	111.228
0.045	6.64598	281.561	111.794
0.0475	6.73903	280.904	112.356
0.05	6.83223	280.251	112.917
0.0525	6.92558	279.599	113.475
0.055	7.0191	278.949	114.031
0.0575	7.11276	278.302	114.585
0.06	7.20658	277.657	115.136
0.0625	7.30056	277.014	115.686
0.065	7.39468	276.373	116.232
0.0675	7.48895	275.734	116.777
0.07	7.58338	275.098	117.319
0.0725	7.67794	274.463	117.859
0.075	7.77266	273.831	118.397
0.0775	7.86752	273.2	118.932
0.08	7.96252	272.572	119.465
0.0825	8.05766	271.946	119.996
0.085	8.15295	271.322	120.525
0.0875	8.24837	270.7	121.052
0.09	8.34394	270.08	121.576
0.0925	8.43964	269.462	122.098
0.095	8.53548	268.846	122.618
0.0975	8.63145	268.233	123.136
0.1	8.72755	267.621	123.651
0.1025	8.82379	267.011	124.165
0.105	8.92016	266.404	124.676
0.1075	9.01667	265.798	125.185
0.11	9.1133	265.195	125.692
0.1125	9.21006	264.593	126.197
0.115	9.30694	263.993	126.7
0.1175	9.40396	263.396	127.2
0.12	9.5011	262.8	127.699
0.1225	9.59836	262.207	128.195
0.125	9.69575	261.615	128.689
0.1275	9.79326	261.026	129.181
0.13	9.89089	260.438	129.671
0.1325	9.98864	259.852	130.159
0.135	10.0865	259.268	130.645
0.1375	10.1845	258.687	131.129
0.14	10.2826	258.107	131.611
0.1425	10.3808	257.529	132.09
0.145	10.4792	256.953	132.568
0.1475	10.5776	256.379	133.044
0.15	10.6762	255.806	133.517
0.1525	10.7749	255.236	133.989
0.155	10.8736	254.668	134.459
0.1575	10.9725	254.101	134.926
0.16	11.0716	253.537	135.392
0.1625	11.1707	252.974	135.855
0.165	11.2699	252.413	136.317
0.1675	11.3692	251.854	136.777
0.17	11.4687	251.297	137.234
0.1725	11.5682	250.742	137.69
0.175	11.6679	250.188	138.144
0.1775	11.7676	249.637	138.596
0.18	11.8675	249.087	139.046
0.1825	11.9674	248.539	139.494
0.185	12.0675	247.993	139.94
0.1875	12.1676	247.449	140.384
0.19	12.2679	246.906	140.826
0.1925	12.3683	246.366	141.266
0.195	12.4687	245.827	141.704
0.1975	12.5693	245.29	142.141
0.2	12.6699	244.755	142.576
0.2025	12.7707	244.221	143.008
0.205	12.8715	243.689	143.439
0.2075	12.9724	243.159	143.868
0.21	13.0734	242.631	144.295
0.2125	13.1746	242.105	144.721
0.215	13.2758	241.58	145.144
0.2175	13.3771	241.057	145.566
0.22	13.4784	240.536	145.985
0.2225	13.5799	240.017	146.403
0.225	13.6815	239.499	146.819
0.2275	13.7831	238.983	147.234
0.23	13.8849	238.469	147.646
0.2325	13.9867	237.956	148.057
0.235	14.0886	237.445	148.466
0.2375	14.1906	236.936	148.873
0.24	14.2927	236.429	149.278
0.2425	14.3948	235.923	149.682
0.245	14.4971	235.419	150.084
0.2475	14.5994	234.917	150.484
0.25	14.7018	234.416	150.882
0.2525	14.8043	233.917	151.279
0.255	14.9069	233.42	151.674
0.2575	15.0095	232.924	152.067
0.26	15.1122	232.43	152.458
0.2625	15.215	231.937	152.848
0.265	15.3179	231.446	153.236
0.2675	15.4208	230.957	153.622
0.27	15.5239	230.47	154.006
0.2725	15.627	229.984	154.389
0.275	15.7301	229.5	154.77
0.2775	15.8334	229.017	155.15
0.28	15.9367	228.536	155.528
0.2825	16.0401	228.056	155.904
0.285	16.1436	227.578	156.278
0.2875	16.2471	227.102	156.651
0.29	16.3507	226.627	157.022
0.2925	16.4544	226.154	157.391
0.295	16.5581	225.683	157.759
0.2975	16.6619	225.213	158.125
0.3	16.7658	224.744	158.49
0.3025	16.8698	224.277	158.853
0.305	16.9738	223.812	159.214
0.3075	17.0779	223.348	159.574
0.31	17.182	222.886	159.932
0.3125	17.2862	222.425	160.289
0.315	17.3905	221.966	160.643
0.3175	17.4948	221.508	160.997
0.32	17.5992	221.052	161.348
0.3225	17.7037	220.598	161.699
0.325	17.8082	220.145	162.047
0.3275	17.9128	219.693	162.394
0.33	18.0174	219.243	162.74
0.3325	18.1221	218.794	163.084
0.335	18.2269	218.347	163.426
0.3375	18.3317	217.902	163.767
0.34	18.4366	217.457	164.106
0.3425	18.5415	217.015	164.444
0.345	18.6465	216.574	164.78
0.3475	18.7515	216.134	165.115
0.35	18.8566	215.695	165.448
0.3525	18.9618	215.259	165.78
0.355	19.067	214.823	166.11
0.3575	19.1723	214.389	166.438
0.36	19.2776	213.957	166.766
0.3625	19.3829	213.526	167.091
0.365	19.4884	213.096	167.415
0.3675	19.5938	212.668	167.738
0.37	19.6994	212.241	168.059
0.3725	19.8049	211.816	168.379
0.375	19.9106	211.392	168.698
0.3775	20.0162	210.969	169.014
0.38	20.122	210.548	169.33
0.3825	20.2277	210.128	169.644
0.385	20.3335	209.71	169.956
0.3875	20.4394	209.293	170.268
0.39	20.5453	208.877	170.577
0.3925	20.6513	208.463	170.886
0.395	20.7573	208.05	171.192
0.3975	20.8633	207.639	171.498
0.4	20.9694	207.229	171.802
0.4025	21.0756	206.82	172.104
0.405	21.1817	206.413	172.406
0.4075	21.288	206.007	172.705
0.41	21.3942	205.602	173.004
0.4125	21.5005	205.198	173.301
0.415	21.6069	204.796	173.597
0.4175	21.7133	204.396	173.891
0.42	21.8197	203.996	174.184
0.4225	21.9262	203.598	174.475
0.425	22.0327	203.202	174.766
0.4275	22.1392	202.806	175.055
0.43	22.2458	202.412	175.342
0.4325	22.3525	202.019	175.628
0.435	22.4591	201.628	175.913
0.4375	22.5658	201.238	176.197
0.44	22.6726	200.849	176.479
0.4425	22.7793	200.461	176.76
0.445	22.8861	200.075	177.039
0.4475	22.993	199.69	177.317
0.45	23.0999	199.306	177.594
0.4525	23.2068	198.923	177.87
0.455	23.3137	198.542	178.144
0.4575	23.4207	198.162	178.417
0.46	23.5277	197.783	178.689
0.4625	23.6348	197.406	178.96
0.465	23.7418	197.029	179.229
0.4675	23.8489	196.654	179.497
0.47	23.9561	196.281	179.763
0.4725	24.0632	195.908	180.029
0.475	24.1704	195.537	180.293
0.4775	24.2777	195.167	180.556
0.48	24.3849	194.798	180.817
0.4825	24.4922	194.43	181.078
0.485	24.5995	194.064	181.337
0.4875	24.7068	193.699	181.594
0.49	24.8142	193.335	181.851
0.4925	24.9216	192.972	182.107
0.495	25.029	192.61	182.361
0.4975	25.1365	192.25	182.614
0.5	25.2439	191.891	182.865
0.5025	25.3514	191.533	183.116
0.505	25.4589	191.176	183.365
0.5075	25.5665	190.82	183.613
0.51	25.674	190.466	183.86
0.5125	25.7816	190.112	184.106
0.515	25.8892	189.76	184.351
0.5175	25.9969	189.409	184.594
0.52	26.1045	189.059	184.836
0.5225	26.2122	188.711	185.077
0.525	26.3199	188.363	185.317
0.5275	26.4276	188.017	185.556
0.53	26.5353	187.671	185.793
0.5325	26.6431	187.327	186.03
0.535	26.7509	186.984	186.265
0.5375	26.8587	186.642	186.499
0.54	26.9665	186.302	186.732
0.5425	27.0743	185.962	186.964
0.545	27.1821	185.624	187.194
0.5475	27.29	185.286	187.424
0.55	27.3979	184.95	187.652
0.5525	27.5058	184.615	187.879
0.555	27.6137	184.281	188.105
0.5575	27.7216	183.948	188.33
0.56	27.8295	183.616	188.554
0.5625	27.9375	183.285	188.777
0.565	28.0454	182.956	188.999
0.5675	28.1534	182.627	189.219
0.57	28.2614	182.3	189.439
0.5725	28.3694	181.973	189.657
0.575	28.4774	181.648	189.875
0.5775	28.5855	181.324	190.091
0.58	28.6935	181	190.306
0.5825	28.8016	180.678	190.52
0.585	28.9096	180.357	190.733
0.5875	29.0177	180.037	190.945
0.59	29.1258	179.718	191.156
0.5925	29.2339	179.4	191.366
0.595	29.342	179.083	191.575
0.5975	29.4501	178.768	191.782
0.6	29.5582	178.453	191.989
0.6025	29.6663	178.139	192.195
0.605	29.7744	177.826	192.399
0.6075	29.8826	177.515	192.603
0.61	29.9907	177.204	192.805
0.6125	30.0988	176.894	193.007
0.615	30.207	176.586	193.207
0.6175	30.3152	176.278	193.407
0.62	30.4233	175.972	193.605
0.6225	30.5315	175.666	193.802
0.625	30.6397	175.361	193.999
0.6275	30.7478	175.058	194.194
0.63	30.856	174.755	194.389
0.6325	30.9642	174.454	194.582
0.635	31.0724	174.153	194.774
0.6375	31.1806	173.854	194.966
0.64	31.2888	173.555	195.156
0.6425	31.3969	173.257	195.346
0.645	31.5051	172.961	195.534
0.6475	31.6133	172.665	195.722
0.65	31.7215	172.37	195.908
0.6525	31.8297	172.076	196.094
0.655	31.9379	171.784	196.278
0.6575	32.0461	171.492	196.462
0.66	32.1543	171.201	196.645
0.6625	32.2624	170.911	196.826
0.665	32.3706	170.622	197.007
0.6675	32.4788	170.334	197.187
0.67	32.587	170.047	197.366
0.6725	32.6952	169.761	197.544
0.675	32.8033	169.476	197.721
0.6775	32.9115	169.192	197.897
0.68	33.0196	168.908	198.072
0.6825	33.1278	168.626	198.246
0.685	33.236	168.344	198.42
0.6875	33.3441	168.064	198.592
0.69	33.4522	167.784	198.763
0.6925	33.5604	167.506	198.934
0.695	33.6685	167.228	199.104
0.6975	33.7766	166.951	199.272
0.7	33.8847	166.675	199.44
0.7025	33.9928	166.4	199.607
0.705	34.1009	166.126	199.773
0.7075	34.209	165.853	199.938
0.71	34.3171	165.58	200.103
0.7125	34.4252	165.309	200.266
0.715	34.5332	165.038	200.428
0.7175	34.6413	164.769	200.59
0.72	34.7493	164.5	200.751
0.7225	34.8573	164.232	200.911
0.725	34.9653	163.965	201.07
0.7275	35.0733	163.699	201.228
0.73	35.1813	163.433	201.385
0.7325	35.2893	163.169	201.542
0.735	35.3973	162.906	201.697
0.7375	35.5052	162.643	201.852
0.74	35.6132	162.381	202.006
0.7425	35.7211	162.12	202.159
0.745	35.829	161.86	202.311
0.7475	35.9369	161.601	202.462
0.75	36.0448	161.342	202.613
0.7525	36.1527	161.085	202.762
0.755	36.2605	160.828	202.911
0.7575	36.3684	160.572	203.059
0.76	36.4762	160.317	203.207
0.7625	36.584	160.063	203.353
0.765	36.6918	159.81	203.498
0.7675	36.7996	159.557	203.643
0.77	36.9073	159.306	203.787
0.7725	37.0151	159.055	203.93
0.775	37.1228	158.805	204.073
0.7775	37.2305	158.555	204.214
0.78	37.3382	158.307	204.355
0.7825	37.4458	158.059	204.495
0.785	37.5535	157.813	204.634
0.7875	37.6611	157.567	204.772
0.79	37.7687	157.322	204.91
0.7925	37.8763	157.077	205.047
0.795	37.9838	156.834	205.183
0.7975	38.0914	156.591	205.318
0.8	38.1989	156.349	205.452
0.8025	38.3064	156.108	205.586
0.805	38.4138	155.867	205.719
0.8075	38.5213	155.628	205.851
0.81	38.6287	155.389	205.982
0.8125	38.7361	155.151	206.113
0.815	38.8435	154.914	206.243
0.8175	38.9509	154.677	206.372
0.82	39.0582	154.442	206.5
0.8225	39.1655	154.207	206.628
0.825	39.2728	153.973	206.755
0.8275	39.3801	153.739	206.881
0.83	39.4873	153.507	207.006
0.8325	39.5945	153.275	207.131
0.835	39.7017	153.044	207.255
0.8375	39.8088	152.813	207.378
0.84	39.9159	152.584	207.5
0.8425	40.023	152.355	207.622
0.845	40.1301	152.127	207.743
0.8475	40.2372	151.899	207.863
0.85	40.3442	151.673	207.983
0.8525	40.4512	151.447	208.102
0.855	40.5581	151.222	208.22
0.8575	40.665	150.998	208.337
0.86	40.7719	150.774	208.454
0.8625	40.8788	150.551	208.57
0.865	40.9857	150.329	208.685
0.8675	41.0925	150.108	208.8
0.87	41.1992	149.887	208.914
0.8725	41.306	149.667	209.027
0.875	41.4127	149.448	209.14
0.8775	41.5194	149.229	209.252
0.88	41.626	149.011	209.363
0.8825	41.7327	148.794	209.473
0.885	41.8392	148.578	209.583
0.8875	41.9458	148.362	209.692
0.89	42.0523	148.147	209.801
0.8925	42.1588	147.933	209.908
0.895	42.2653	147.719	210.015
0.8975	42.3717	147.506	210.122
0.9	42.4781	147.294	210.228
0.9025	42.5844	147.083	210.333
0.905	42.6907	146.872	210.437
0.9075	42.797	146.662	210.541
0.91	42.9032	146.453	210.644
0.9125	43.0094	146.244	210.747
0.915	43.1156	146.036	210.849
0.9175	43.2217	145.828	210.95
0.92	43.3278	145.622	211.05
0.9225	43.4339	145.416	211.15
0.925	43.5399	145.211	211.25
0.9275	43.6459	145.006	211.348
0.93	43.7518	144.802	211.446
0.9325	43.8577	144.599	211.544
0.935	43.9636	144.396	211.64
0.9375	44.0694	144.194	211.736
0.94	44.1752	143.993	211.832
0.9425	44.281	143.792	211.927
0.945	44.3867	143.592	212.021
0.9475	44.4923	143.393	212.115
0.95	44.598	143.194	212.208
0.9525	44.7036	142.996	212.3
0.955	44.8091	142.799	212.392
0.9575	44.9146	142.602	212.483
0.96	45.0201	142.406	212.574
0.9625	45.1255	142.211	212.664
0.965	45.2309	142.016	212.753
0.9675	45.3362	141.822	212.842
0.97	45.4415	141.628	212.93
0.9725	45.5467	141.435	213.018
0.975	45.6519	141.243	213.105
0.9775	45.7571	141.052	213.191
0.98	45.8622	140.861	213.277
0.9825	45.9673	140.67	213.362
0.985	46.0723	140.481	213.447
0.9875	46.1773	140.292	213.531
0.99	46.2822	140.103	213.615
0.9925	46.3871	139.915	213.698
0.995	46.4919	139.728	213.78
0.9975	46.5967	139.541	213.862
1	46.7015	139.355	213.943
1.0025	46.8062	139.17	214.024
1.005	46.9108	138.985	214.104
1.0075	47.0154	138.801	214.183
1.01	47.12	138.618	214.262
1.0125	47.2245	138.435	214.341
1.015	47.329	138.252	214.419
1.0175	47.4334	138.071	214.496
1.02	47.5378	137.889	214.573
1.0225	47.6421	137.709	214.649
1.025	47.7464	137.529	214.725
1.0275	47.8506	137.349	214.8
1.03	47.9547	137.171	214.875
1.0325	48.0589	136.993	214.949
1.035	48.1629	136.815	215.022
1.0375	48.2669	136.638	215.095
1.04	48.3709	136.462	215.168
1.0425	48.4748	136.286	215.24
1.045	48.5787	136.11	215.311
1.0475	48.6825	135.936	215.382
1.05	48.7863	135.762	215.452
1.0525	48.89	135.588	215.522
1.055	48.9936	135.415	215.591
1.0575	49.0972	135.243	215.66
1.06	49.2008	135.071	215.728
1.0625	49.3043	134.9	215.796
1.065	49.4077	134.729	215.863
1.0675	49.5111	134.559	215.93
1.07	49.6144	134.389	215.996
1.0725	49.7177	134.22	216.062
1.075	49.8209	134.052	216.127
1.0775	49.9241	133.884	216.192
1.08	50.0272	133.717	216.256
1.0825	50.1303	133.55	216.32
1.085	50.2333	133.384	216.383
1.0875	50.3362	133.218	216.446
1.09	50.4391	133.053	216.508
1.0925	50.5419	132.888	216.57
1.095	50.6447	132.724	216.631
1.0975	50.7474	132.561	216.692
1.1	50.8501	132.398	216.752
1.1025	50.9527	132.235	216.812
1.105	51.0552	132.073	216.871
1.1075	51.1577	131.912	216.93
1.11	51.2601	131.751	216.989
1.1125	51.3625	131.591	217.046
1.115	51.4648	131.431	217.104
1.1175	51.567	131.272	217.161
1.12	51.6692	131.113	217.217
1.1225	51.7714	130.955	217.273
1.125	51.8734	130.798	217.329
1.1275	51.9754	130.64	217.384
1.13	52.0774	130.484	217.439
1.1325	52.1793	130.328	217.493
1.135	52.2811	130.172	217.547
1.1375	52.3829	130.017	217.6
1.14	52.4846	129.863	217.653
1.1425	52.5862	129.709	217.705
1.145	52.6878	129.555	217.757
1.1475	52.7893	129.402	217.808
1.15	52.8907	129.25	217.859
1.1525	52.9921	129.098	217.91
1.155	53.0935	128.946	217.96
1.1575	53.1947	128.795	218.01
1.16	53.2959	128.645	218.059
1.1625	53.3971	128.495	218.108
1.165	53.4981	128.346	218.156
1.1675	53.5991	128.197	218.204
1.17	53.7001	128.048	218.252
1.1725	53.801	127.9	218.299
1.175	53.9018	127.753	218.346
1.1775	54.0025	127.606	218.392
1.18	54.1032	127.459	218.438
1.1825	54.2038	127.313	218.483
1.185	54.3044	127.168	218.528
1.1875	54.4048	127.023	218.573
1.19	54.5053	126.878	218.617
1.1925	54.6056	126.734	218.66
1.195	54.7059	126.59	218.704
1.1975	54.8061	126.447	218.747
1.2	54.9063	126.305	218.789
1.2025	55.0063	126.163	218.831
1.205	55.1063	126.021	218.873
1.2075	55.2063	125.88	218.914
1.21	55.3062	125.739	218.955
1.2125	55.406	125.599	218.995
1.215	55.5057	125.459	219.035
1.2175	55.6054	125.32	219.075
1.22	55.705	125.181	219.114
1.2225	55.8045	125.042	219.153
1.225	55.904	124.904	219.192
1.2275	56.0034	124.767	219.23
1.23	56.1027	124.63	219.267
1.2325	56.2019	124.493	219.305
1.235	56.3011	124.357	219.342
1.2375	56.4002	124.222	219.378
1.24	56.4992	124.086	219.414
1.2425	56.5982	123.952	219.45
1.245	56.6971	123.818	219.485
1.2475	56.7959	123.684	219.52
1.25	56.8946	123.55	219.555
1.2525	56.9933	123.417	219.589
1.255	57.0919	123.285	219.623
1.2575	57.1905	123.153	219.657
1.26	57.2889	123.021	219.69
1.2625	57.3873	122.89	219.723
1.265	57.4856	122.759	219.755
1.2675	57.5838	122.629	219.787
1.27	57.682	122.499	219.819
1.2725	57.7801	122.37	219.85
1.275	57.8781	122.241	219.881
1.2775	57.976	122.113	219.911
1.28	58.0739	121.985	219.942
1.2825	58.1717	121.857	219.971
1.285	58.2694	121.73	220.001
1.2875	58.367	121.603	220.03
1.29	58.4646	121.477	220.059
1.2925	58.5621	121.351	220.087
1.295	58.6595	121.225	220.115
1.2975	58.7568	121.1	220.143
1.3	58.8541	120.975	220.171
1.3025	58.9512	120.851	220.198
1.305	59.0483	120.727	220.224
1.3075	59.1454	120.604	220.251
1.31	59.2423	120.481	220.277
1.3125	59.3392	120.358	220.302
1.315	59.436	120.236	220.328
1.3175	59.5327	120.115	220.353
1.32	59.6293	119.993	220.377
1.3225	59.7259	119.872	220.402
1.325	59.8223	119.752	220.426
1.3275	59.9187	119.632	220.449
1.33	60.0151	119.512	220.473
1.3325	60.1113	119.393	220.496
1.335	60.2075	119.274	220.519
1.3375	60.3035	119.156	220.541
1.34	60.3995	119.037	220.563
1.3425	60.4954	118.92	220.585
1.345	60.5913	118.803	220.606
1.3475	60.687	118.686	220.627
1.35	60.7827	118.569	220.648
1.3525	60.8783	118.453	220.668
1.355	60.9738	118.338	220.689
1.3575	61.0693	118.222	220.708
1.36	61.1646	118.107	220.728
1.3625	61.2599	117.993	220.747
1.365	61.3551	117.879	220.766
1.3675	61.4502	117.765	220.785
1.37	61.5452	117.652	220.803
1.3725	61.6401	117.539	220.821
1.375	61.735	117.426	220.839
1.3775	61.8298	117.314	220.856
1.38	61.9245	117.203	220.873
1.3825	62.0191	117.091	220.89
1.385	62.1136	116.98	220.906
1.3875	62.208	116.87	220.922
1.39	62.3024	116.759	220.938
1.3925	62.3967	116.65	220.954
1.395	62.4908	116.54	220.969
1.3975	62.5849	116.431	220.984
1.4	62.679	116.322	220.999
1.4025	62.7729	116.214	221.013
1.405	62.8667	116.106	221.027
1.4075	62.9605	115.998	221.041
1.41	63.0542	115.891	221.055
1.4125	63.1478	115.784	221.068
1.415	63.2413	115.678	221.081
1.4175	63.3347	115.572	221.094
1.42	63.428	115.466	221.106
1.4225	63.5213	115.36	221.118
1.425	63.6144	115.255	221.13
1.4275	63.7075	115.151	221.142
1.43	63.8005	115.047	221.153
1.4325	63.8934	114.943	221.164
1.435	63.9862	114.839	221.175
1.4375	64.0789	114.736	221.185
1.44	64.1715	114.633	221.196
1.4425	64.2641	114.53	221.205
1.445	64.3565	114.428	221.215
1.4475	64.4489	114.327	221.225
1.45	64.5412	114.225	221.234
1.4525	64.6334	114.124	221.243
1.455	64.7255	114.023	221.251
1.4575	64.8175	113.923	221.26
1.46	64.9094	113.823	221.268
1.4625	65.0013	113.723	221.276
1.465	65.093	113.624	221.283
1.4675	65.1847	113.525	221.29
1.47	65.2762	113.426	221.298
1.4725	65.3677	113.328	221.304
1.475	65.4591	113.23	221.311
1.4775	65.5504	113.132	221.317
1.48	65.6416	113.035	221.323
1.4825	65.7327	112.938	221.329
1.485	65.8237	112.842	221.335
1.4875	65.9147	112.745	221.34
1.49	66.0055	112.649	221.345
1.4925	66.0962	112.554	221.35
1.495	66.1869	112.459	221.354
1.4975	66.2775	112.364	221.359
1.5	66.3679	112.269	221.363
1.5025	66.4583	112.175	221.367
1.505	66.5486	112.081	221.37
1.5075	66.6388	111.988	221.374
1.51	66.7289	111.894	221.377
1.5125	66.8189	111.801	221.38
1.515	66.9088	111.709	221.382
1.5175	66.9987	111.617	221.385
1.52	67.0884	111.525	221.387
1.5225	67.178	111.433	221.389
1.525	67.2676	111.342	221.391
1.5275	67.357	111.251	221.392
1.53	67.4464	111.16	221.393
1.5325	67.5356	111.07	221.394
1.535	67.6248	110.98	221.395
1.5375	67.7139	110.89	221.396
1.54	67.8029	110.801	221.396
1.5425	67.8917	110.712	221.396
1.545	67.9805	110.623	221.396
1.5475	68.0692	110.535	221.396
1.55	68.1578	110.447	221.396
1.5525	68.2463	110.359	221.395
1.555	68.3347	110.271	221.394
1.5575	68.423	110.184	221.393
1.56	68.5112	110.097	221.391
1.5625	68.5994	110.011	221.39
1.565	68.6874	109.925	221.388
1.5675	68.7753	109.839	221.386
1.57	68.8631	109.753	221.384
1.5725	68.9509	109.668	221.381
1.575	69.0385	109.583	221.378
1.5775	69.126	109.498	221.376
1.58	69.2135	109.414	221.373
1.5825	69.3008	109.33	221.369
1.585	69.3881	109.246	221.366
1.5875	69.4752	109.163	221.362
1.59	69.5623	109.08	221.358
1.5925	69.6492	108.997	221.354
1.595	69.7361	108.914	221.35
1.5975	69.8228	108.832	221.345
1.6	69.9095	108.75	221.341
1.6025	69.9961	108.668	221.336
1.605	70.0825	108.587	221.331
1.6075	70.1689	108.506	221.325
1.61	70.2552	108.425	221.32
1.6125	70.3413	108.345	221.314
1.615	70.4274	108.264	221.308
1.6175	70.5133	108.185	221.302
1.62	70.5992	108.105	221.296
1.6225	70.685	108.026	221.289
1.625	70.7706	107.947	221.283
1.6275	70.8562	107.868	221.276
1.63	70.9417	107.789	221.269
1.6325	71.0271	107.711	221.262
1.635	71.1123	107.633	221.254
1.6375	71.1975	107.556	221.247
1.64	71.2825	107.478	221.239
1.6425	71.3675	107.401	221.231
1.645	71.4524	107.325	221.223
1.6475	71.5371	107.248	221.215
1.65	71.6218	107.172	221.206
1.6525	71.7064	107.096	221.197
1.655	71.7908	107.021	221.189
1.6575	71.8752	106.945	221.18
1.66	71.9594	106.87	221.17
1.6625	72.0436	106.795	221.161
1.665	72.1276	106.721	221.151
1.6675	72.2116	106.647	221.142
1.67	72.2954	106.573	221.132
1.6725	72.3792	106.499	221.122
1.675	72.4628	106.426	221.112
1.6775	72.5464	106.353	221.101
1.68	72.6298	106.28	221.091
1.6825	72.7131	106.207	221.08
1.685	72.7964	106.135	221.069
1.6875	72.8795	106.063	221.058
1.69	72.9625	105.991	221.047
1.6925	73.0455	105.919	221.035
1.695	73.1283	105.848	221.024
1.6975	73.211	105.777	221.012
1.7	73.2936	105.706	221
1.7025	73.3761	105.636	220.988
1.705	73.4585	105.566	220.976
1.7075	73.5408	105.496	220.963
1.71	73.623	105.426	220.951
1.7125	73.7051	105.357	220.938
1.715	73.7871	105.288	220.925
1.7175	73.869	105.219	220.912
1.72	73.9507	105.15	220.899
1.7225	74.0324	105.082	220.886
1.725	74.114	105.014	220.872
1.7275	74.1954	104.946	220.859
1.73	74.2768	104.878	220.845
1.7325	74.3581	104.811	220.831
1.735	74.4392	104.744	220.817
1.7375	74.5202	104.677	220.802
1.74	74.6012	104.611	220.788
1.7425	74.682	104.544	220.774
1.745	74.7627	104.478	220.759
1.7475	74.8434	104.413	220.744
1.75	74.9239	104.347	220.729
1.7525	75.0043	104.282	220.714
1.755	75.0846	104.217	220.699
1.7575	75.1648	104.152	220.683
1.76	75.2449	104.087	220.668
1.7625	75.3248	104.023	220.652
1.765	75.4047	103.959	220.636
1.7675	75.4845	103.895	220.62
1.77	75.5641	103.832	220.604
1.7725	75.6437	103.768	220.588
1.775	75.7231	103.705	220.572
1.7775	75.8025	103.643	220.555
1.78	75.8817	103.58	220.538
1.7825	75.9608	103.518	220.522
1.785	76.0398	103.456	220.505
1.7875	76.1188	103.394	220.488
1.79	76.1976	103.332	220.47
1.7925	76.2762	103.271	220.453
1.795	76.3548	103.21	220.436
1.7975	76.4333	103.149	220.418
1.8	76.5117	103.088	220.4
1.8025	76.5899	103.028	220.382
1.805	76.6681	102.967	220.365
1.8075	76.7461	102.907	220.346
1.81	76.8241	102.848	220.328
1.8125	76.9019	102.788	220.31
1.815	76.9796	102.729	220.291
1.8175	77.0572	102.67	220.273
1.82	77.1347	102.611	220.254
1.8225	77.2121	102.553	220.235
1.825	77.2894	102.494	220.216
1.8275	77.3666	102.436	220.197
1.83	77.4436	102.378	220.178
1.8325	77.5206	102.321	220.159
1.835	77.5974	102.263	220.139
1.8375	77.6742	102.206	220.12
1.84	77.7508	102.149	220.1
1.8425	77.8273	102.093	220.08
1.845	77.9037	102.036	220.06
1.8475	77.98	101.98	220.04
1.85	78.0562	101.924	220.02
1.8525	78.1323	101.868	220
1.855	78.2082	101.813	219.979
1.8575	78.2841	101.757	219.959
1.86	78.3598	101.702	219.938
1.8625	78.4355	101.647	219.917
1.865	78.511	101.592	219.897
1.8675	78.5864	101.538	219.876
1.87	78.6617	101.484	219.855
1.8725	78.7369	101.43	219.833
1.875	78.812	101.376	219.812
1.8775	78.8869	101.322	219.791
1.88	78.9618	101.269	219.769
1.8825	79.0365	101.216	219.748
1.885	79.1112	101.163	219.726
1.8875	79.1857	101.11	219.704
1.89	79.2601	101.058	219.682
1.8925	79.3344	101.005	219.66
1.895	79.4086	100.953	219.638
1.8975	79.4827	100.901	219.616
1.9	79.5566	100.85	219.594
1.9025	79.6305	100.798	219.571
1.905	79.7042	100.747	219.549
1.9075	79.7779	100.696	219.526
1.91	79.8514	100.645	219.503
1.9125	79.9248	100.595	219.481
1.915	79.9981	100.544	219.458
1.9175	80.0713	100.494	219.435
1.92	80.1443	100.444	219.411
1.9225	80.2173	100.394	219.388
1.925	80.2901	100.345	219.365
1.9275	80.3629	100.296	219.342
1.93	80.4355	100.246	219.318
1.9325	80.508	100.197	219.295
1.935	80.5804	100.149	219.271
1.9375	80.6527	100.1	219.247
1.94	80.7248	100.052	219.223
1.9425	80.7969	100.004	219.199
1.945	80.8688	99.9559	219.175
1.9475	80.9407	99.9082	219.151
1.95	81.0124	99.8607	219.127
1.9525	81.084	99.8134	219.103
1.955	81.1555	99.7663	219.078
1.9575	81.2269	99.7194	219.054
1.96	81.2981	99.6727	219.029
1.9625	81.3693	99.6262	219.005
1.965	81.4403	99.5799	218.98
1.9675	81.5112	99.5338	218.955
1.97	81.582	99.4879	218.93
1.9725	81.6527	99.4421	218.905
1.975	81.7233	99.3966	218.88
1.9775	81.7938	99.3513	218.855
1.98	81.8641	99.3062	218.83
1.9825	81.9344	99.2613	218.804
1.985	82.0045	99.2165	218.779
1.9875	82.0745	99.172	218.753
1.99	82.1444	99.1276	218.728
1.9925	82.2142	99.0835	218.702
1.995	82.2839	99.0395	218.677
1.9975	82.3534	98.9958	218.651
2	82.4229	98.9522	218.625
2.0025	82.4922	98.9088	218.599
2.005	82.5614	98.8656	218.573
2.0075	82.6305	98.8226	218.547
2.01	82.6995	98.7798	218.521
2.0125	82.7683	98.7371	218.495
2.015	82.8371	98.6947	218.468
2.0175	82.9057	98.6525	218.442
2.02	82.9743	98.6104	218.415
2.0225	83.0427	98.5685	218.389
2.025	83.111	98.5268	218.362
2.0275	83.1791	98.4853	218.336
2.03	83.2472	98.444	218.309
2.0325	83.3152	98.4028	218.282
2.035	83.383	98.3619	218.255
2.0375	83.4507	98.3211	218.228
2.04	83.5183	98.2805	218.201
2.0425	83.5858	98.2401	218.174
2.045	83.6532	98.1999	218.147
2.0475	83.7204	98.1599	218.12
2.05	83.7876	98.12	218.092
2.0525	83.8546	98.0803	218.065
2.055	83.9215	98.0408	218.038
2.0575	83.9883	98.0015	218.01
2.06	84.055	97.9624	217.983
2.0625	84.1216	97.9234	217.955
2.065	84.188	97.8846	217.927
2.0675	84.2543	97.846	217.9
2.07	84.3206	97.8076	217.872
2.0725	84.3867	97.7693	217.844
2.075	84.4526	97.7313	217.816
2.0775	84.5185	97.6934	217.788
2.08	84.5843	97.6556	217.76
2.0825	84.6499	97.6181	217.732
2.085	84.7154	97.5807	217.704
2.0875	84.7808	97.5435	217.676
2.09	84.8461	97.5065	217.647
2.0925	84.9113	97.4696	217.619
2.095	84.9764	97.433	217.591
2.0975	85.0413	97.3965	217.562
2.1	85.1061	97.3601	217.534
2.1025	85.1708	97.324	217.505
2.105	85.2354	97.288	217.477
2.1075	85.2999	97.2521	217.448
2.11	85.3643	97.2165	217.419
2.1125	85.4285	97.181	217.39
2.115	85.4927	97.1457	217.362
2.1175	85.5567	97.1105	217.333
2.12	85.6206	97.0755	217.304
2.1225	85.6843	97.0407	217.275
2.125	85.748	97.0061	217.246
2.1275	85.8116	96.9716	217.217
2.13	85.875	96.9373	217.188
2.1325	85.9383	96.9031	217.159
2.135	86.0015	96.8692	217.129
2.1375	86.0646	96.8353	217.1
2.14	86.1275	96.8017	217.071
2.1425	86.1904	96.7682	217.041
2.145	86.2531	96.7349	217.012
2.1475	86.3157	96.7017	216.983
2.15	86.3782	96.6687	216.953
2.1525	86.4406	96.6359	216.924
2.155	86.5029	96.6032	216.894
2.1575	86.565	96.5707	216.864
2.16	86.6271	96.5383	216.835
2.1625	86.689	96.5061	216.805
2.165	86.7508	96.4741	216.775
2.1675	86.8124	96.4422	216.745
2.17	86.874	96.4105	216.715
2.1725	86.9355	96.3789	216.686
2.175	86.9968	96.3475	216.656
2.1775	87.058	96.3163	216.626
2.18	87.1191	96.2852	216.596
2.1825	87.1801	96.2543	216.566
2.185	87.2409	96.2235	216.536
2.1875	87.3017	96.1929	216.505
2.19	87.3623	96.1624	216.475
2.1925	87.4228	96.1321	216.445
2.195	87.4832	96.102	216.415
2.1975	87.5435	96.072	216.385
2.2	87.6037	96.0422	216.354
2.2025	87.6637	96.0125	216.324
2.205	87.7236	95.9829	216.293
2.2075	87.7834	95.9535	216.263
2.21	87.8431	95.9243	216.233
2.2125	87.9027	95.8952	216.202
2.215	87.9622	95.8663	216.172
2.2175	88.0215	95.8375	216.141
2.22	88.0807	95.8089	216.11
2.2225	88.1398	95.7804	216.08
2.225	88.1988	95.7521	216.049
2.2275	88.2577	95.7239	216.018
2.23	88.3164	95.6959	215.988
2.2325	88.3751	95.668	215.957
2.235	88.4336	95.6403	215.926
2.2375	88.492	95.6127	215.895
2.24	88.5503	95.5853	215.864
2.2425	88.6085	95.558	215.834
2.245	88.6665	95.5309	215.803
2.2475	88.7244	95.5039	215.772
2.25	88.7823	95.477	215.741
2.2525	88.84	95.4503	215.71
2.255	88.8976	95.4238	215.679
2.2575	88.955	95.3973	215.648
2.26	89.0124	95.3711	215.617
2.2625	89.0696	95.345	215.585
2.265	89.1267	95.319	215.554
2.2675	89.1837	95.2931	215.523
2.27	89.2406	95.2674	215.492
2.2725	89.2974	95.2419	215.461
2.275	89.354	95.2165	215.43
2.2775	89.4105	95.1912	215.398
2.28	89.4669	95.1661	215.367
2.2825	89.5232	95.1411	215.336
2.285	89.5794	95.1162	215.304
2.2875	89.6355	95.0915	215.273
2.29	89.6914	95.0669	215.242
2.2925	89.7472	95.0425	215.21
2.295	89.803	95.0182	215.179
2.2975	89.8585	94.9941	215.147
2.3	89.914	94.9701	215.116
2.3025	89.9694	94.9462	215.084
2.305	90.0246	94.9224	215.053
2.3075	90.0797	94.8988	215.021
2.31	90.1348	94.8754	214.99
2.3125	90.1896	94.852	214.958
2.315	90.2444	94.8288	214.927
2.3175	90.2991	94.8058	214.895
2.32	90.3536	94.7829	214.864
2.3225	90.408	94.7601	214.832
2.325	90.4623	94.7374	214.8
2.3275	90.5165	94.7149	214.769
2.33	90.5706	94.6925	214.737
2.3325	90.6245	94.6702	214.705
2.335	90.6784	94.6481	214.674
2.3375	90.7321	94.6261	214.642
2.34	90.7857	94.6043	214.61
2.3425	90.8392	94.5825	214.578
2.345	90.8926	94.5609	214.546
2.3475	90.9458	94.5395	214.515
2.35	90.9989	94.5181	214.483
2.3525	91.052	94.4969	214.451
2.355	91.1049	94.4759	214.419
2.3575	91.1577	94.4549	214.387
2.36	91.2103	94.4341	214.356
2.3625	91.2629	94.4134	214.324
2.365	91.3153	94.3929	214.292
2.3675	91.3676	94.3724	214.26
2.37	91.4198	94.3521	214.228
2.3725	91.4719	94.332	214.196
2.375	91.5239	94.3119	214.164
2.3775	91.5757	94.292	214.132
2.38	91.6275	94.2722	214.1
2.3825	91.6791	94.2525	214.068
2.385	91.7306	94.233	214.036
2.3875	91.782	94.2136	214.004
2.39	91.8333	94.1943	213.972
2.3925	91.8844	94.1751	213.941
2.395	91.9354	94.156	213.909
2.3975	91.9864	94.1371	213.877
2.4	92.0372	94.1183	213.845
2.4025	92.0879	94.0997	213.812
2.405	92.1384	94.0811	213.78
2.4075	92.1889	94.0627	213.748
2.41	92.2392	94.0444	213.716
2.4125	92.2894	94.0262	213.684
2.415	92.3395	94.0081	213.652
2.4175	92.3895	93.9902	213.62
2.42	92.4394	93.9724	213.588
2.4225	92.4892	93.9547	213.556
2.425	92.5388	93.9371	213.524
2.4275	92.5883	93.9196	213.492
2.43	92.6378	93.9023	213.46
2.4325	92.687	93.885	213.428
2.435	92.7362	93.8679	213.396
2.4375	92.7853	93.8509	213.364
2.44	92.8342	93.8341	213.332
2.4425	92.8831	93.8173	213.3
2.445	92.9318	93.8007	213.268
2.4475	92.9804	93.7842	213.235
2.45	93.0289	93.7678	213.203
2.4525	93.0772	93.7515	213.171
2.455	93.1255	93.7353	213.139
2.4575	93.1736	93.7193	213.107
2.46	93.2216	93.7033	213.075
2.4625	93.2696	93.6875	213.043
2.465	93.3173	93.6718	213.011
2.4675	93.365	93.6562	212.979
2.47	93.4126	93.6407	212.947
2.4725	93.46	93.6254	212.915
2.475	93.5074	93.6101	212.883
2.4775	93.5546	93.595	212.85
2.48	93.6017	93.58	212.818
2.4825	93.6487	93.565	212.786
2.485	93.6955	93.5502	212.754
2.4875	93.7423	93.5356	212.722
2.49	93.7889	93.521	212.69
2.4925	93.8354	93.5065	212.658
2.495	93.8819	93.4922	212.626
2.4975	93.9281	93.4779	212.594
2.5	93.9743	93.4638	212.562
2.5025	94.0204	93.4498	212.53
2.505	94.0663	93.4358	212.498
2.5075	94.1122	93.422	212.466
2.51	94.1579	93.4083	212.434
2.5125	94.2035	93.3948	212.402
2.515	94.249	93.3813	212.37
2.5175	94.2944	93.3679	212.338
2.52	94.3396	93.3546	212.306
2.5225	94.3848	93.3415	212.274
2.525	94.4298	93.3284	212.242
2.5275	94.4747	93.3155	212.21
2.53	94.5195	93.3026	212.178
2.5325	94.5642	93.2899	212.146
2.535	94.6088	93.2773	212.114
2.5375	94.6533	93.2648	212.082
2.54	94.6976	93.2524	212.05
2.5425	94.7419	93.2401	212.018
2.545	94.786	93.2278	211.986
2.5475	94.83	93.2157	211.954
2.55	94.8739	93.2038	211.922
2.5525	94.9177	93.1919	211.89
2.555	94.9613	93.1801	211.859
2.5575	95.0049	93.1684	211.827
2.56	95.0483	93.1568	211.795
2.5625	95.0917	93.1453	211.763
2.565	95.1349	93.1339	211.731
2.5675	95.178	93.1227	211.699
2.57	95.221	93.1115	211.668
2.5725	95.2638	93.1004	211.636
2.575	95.3066	93.0894	211.604
2.5775	95.3492	93.0786	211.572
2.58	95.3918	93.0678	211.54
2.5825	95.4342	93.0571	211.509
2.585	95.4765	93.0466	211.477
2.5875	95.5187	93.0361	211.445
2.59	95.5608	93.0257	211.414
2.5925	95.6028	93.0154	211.382
2.595	95.6446	93.0053	211.35
2.5975	95.6864	92.9952	211.318
2.6	95.728	92.9852	211.287
2.6025	95.7695	92.9753	211.255
2.605	95.8109	92.9655	211.224
2.6075	95.8522	92.9558	211.192
2.61	95.8934	92.9463	211.16
2.6125	95.9345	92.9368	211.129
2.615	95.9754	92.9274	211.097
2.6175	96.0163	92.9181	211.066
2.62	96.057	92.9089	211.034
2.6225	96.0976	92.8997	211.003
2.625	96.1381	92.8907	210.971
2.6275	96.1785	92.8818	210.94
2.63	96.2188	92.873	210.908
2.6325	96.259	92.8643	210.877
2.635	96.2991	92.8556	210.845
2.6375	96.339	92.8471	210.814
2.64	96.3789	92.8386	210.783
2.6425	96.4186	92.8303	210.751
2.645	96.4582	92.822	210.72
2.6475	96.4977	92.8138	210.688
2.65	96.5371	92.8057	210.657
2.6525	96.5764	92.7978	210.626
2.655	96.6156	92.7899	210.595
2.6575	96.6547	92.7821	210.563
2.66	96.6936	92.7743	210.532
2.6625	96.7324	92.7667	210.501
2.665	96.7712	92.7592	210.47
2.6675	96.8098	92.7517	210.438
2.67	96.8483	92.7444	210.407
2.6725	96.8867	92.7371	210.376
2.675	96.925	92.7299	210.345
2.6775	96.9632	92.7229	210.314
2.68	97.0013	92.7159	210.283
2.6825	97.0392	92.709	210.252
2.685	97.0771	92.7021	210.221
2.6875	97.1148	92.6954	210.19
2.69	97.1524	92.6888	210.159
2.6925	97.19	92.6822	210.128
2.695	97.2274	92.6758	210.097
2.6975	97.2647	92.6694	210.066
2.7	97.3019	92.6631	210.035
2.7025	97.3389	92.6569	210.004
2.705	97.3759	92.6507	209.973
2.7075	97.4128	92.6447	209.943
2.71	97.4495	92.6388	209.912
2.7125	97.4862	92.6329	209.881
2.715	97.5227	92.6271	209.85
2.7175	97.5591	92.6214	209.819
2.72	97.5955	92.6158	209.789
2.7225	97.6317	92.6103	209.758
2.725	97.6678	92.6049	209.727
2.7275	97.7038	92.5995	209.697
2.73	97.7396	92.5942	209.666
2.7325	97.7754	92.589	209.636
2.735	97.8111	92.5839	209.605
2.7375	97.8466	92.5789	209.574
2.74	97.8821	92.574	209.544
2.7425	97.9174	92.5691	209.513
2.745	97.9527	92.5643	209.483
2.7475	97.9878	92.5596	209.453
2.75	98.0228	92.555	209.422
2.7525	98.0577	92.5505	209.392
2.755	98.0925	92.546	209.361
2.7575	98.1272	92.5416	209.331
2.76	98.1618	92.5373	209.301
2.7625	98.1963	92.5331	209.271
2.765	98.2307	92.529	209.24
2.7675	98.2649	92.5249	209.21
2.77	98.2991	92.521	209.18
2.7725	98.3331	92.5171	209.15
2.775	98.3671	92.5133	209.12
2.7775	98.4009	92.5095	209.09
2.78	98.4347	92.5059	209.059
2.7825	98.4683	92.5023	209.029
2.785	98.5018	92.4988	208.999
2.7875	98.5352	92.4954	208.969
2.79	98.5685	92.492	208.939
2.7925	98.6017	92.4887	208.91
2.795	98.6348	92.4855	208.88
2.7975	98.6678	92.4824	208.85
2.8	98.7007	92.4794	208.82
2.8025	98.7335	92.4764	208.79
2.805	98.7662	92.4735	208.76
2.8075	98.7987	92.4707	208.731
2.81	98.8312	92.468	208.701
2.8125	98.8635	92.4653	208.671
2.815	98.8958	92.4627	208.641
2.8175	98.9279	92.4602	208.612
2.82	98.96	92.4578	208.582
2.8225	98.9919	92.4554	208.553
2.825	99.0237	92.4531	208.523
2.8275	99.0555	92.4509	208.494
2.83	99.0871	92.4487	208.464
2.8325	99.1186	92.4467	208.435
2.835	99.15	92.4447	208.405
2.8375	99.1813	92.4427	208.376
2.84	99.2125	92.4409	208.347
2.8425	99.2436	92.4391	208.317
2.845	99.2746	92.4374	208.288
2.8475	99.3055	92.4357	208.259
2.85	99.3363	92.4342	208.23
2.8525	99.367	92.4327	208.2
2.855	99.3976	92.4312	208.171
2.8575	99.428	92.4299	208.142
2.86	99.4584	92.4286	208.113
2.8625	99.4887	92.4274	208.084
2.865	99.5188	92.4262	208.055
2.8675	99.5489	92.4252	208.026
2.87	99.5789	92.4242	207.997
2.8725	99.6087	92.4232	207.968
2.875	99.6385	92.4223	207.939
2.8775	99.6681	92.4215	207.91
2.88	99.6977	92.4208	207.882
2.8825	99.7271	92.4201	207.853
2.885	99.7565	92.4196	207.824
2.8875	99.7857	92.419	207.795
2.89	99.8149	92.4186	207.767
2.8925	99.8439	92.4182	207.738
2.895	99.8728	92.4178	207.709
2.8975	99.9017	92.4176	207.681
2.9	99.9304	92.4174	207.652
2.9025	99.959	92.4173	207.624
2.905	99.9876	92.4172	207.595
2.9075	100.016	92.4172	207.567
2.91	100.044	92.4173	207.538
2.9125	100.073	92.4174	207.51
2.915	100.101	92.4176	207.482
2.9175	100.129	92.4179	207.453
2.92	100.157	92.4182	207.425
2.9225	100.184	92.4186	207.397
2.925	100.212	92.4191	207.369
2.9275	100.24	92.4196	207.341
2.93	100.267	92.4202	207.313
2.9325	100.295	92.4208	207.284
2.935	100.322	92.4215	207.256
2.9375	100.349	92.4223	207.228
2.94	100.376	92.4231	207.2
2.9425	100.403	92.424	207.173
2.945	100.43	92.425	207.145
2.9475	100.457	92.426	207.117
2.95	100.484	92.4271	207.089
2.9525	100.511	92.4283	207.061
2.955	100.537	92.4295	207.033
2.9575	100.563	92.4307	207.006
2.96	100.59	92.4321	206.978
2.9625	100.616	92.4335	206.95
2.965	100.642	92.4349	206.923
2.9675	100.668	92.4364	206.895
2.97	100.694	92.438	206.868
2.9725	100.72	92.4396	206.84
2.975	100.746	92.4413	206.813
2.9775	100.771	92.4431	206.786
2.98	100.797	92.4449	206.758
2.9825	100.822	92.4468	206.731
2.985	100.848	92.4487	206.704
2.9875	100.873	92.4507	206.676
2.99	100.898	92.4527	206.649
2.9925	100.923	92.4548	206.622
2.995	100.948	92.457	206.595
2.9975	100.973	92.4592	206.568
3	100.998	92.4615	206.541
3.0025	101.022	92.4638	206.514
3.005	101.047	92.4662	206.487
3.0075	101.071	92.4687	206.46
3.01	101.096	92.4712	206.433
3.0125	101.12	92.4738	206.406
3.015	101.144	92.4764	206.379
3.0175	101.168	92.479	206.353
3.02	101.192	92.4818	206.326
3.0225	101.216	92.4846	206.299
3.025	101.24	92.4874	206.273
3.0275	101.264	92.4903	206.246
3.03	101.287	92.4932	206.219
3.0325	101.311	92.4962	206.193
3.035	101.334	92.4993	206.166
3.0375	101.358	92.5024	206.14
3.04	101.381	92.5056	206.114
3.0425	101.404	92.5088	206.087
3.045	101.427	92.5121	206.061
3.0475	101.45	92.5154	206.035
3.05	101.473	92.5188	206.008
3.0525	101.496	92.5222	205.982
3.055	101.518	92.5257	205.956
3.0575	101.541	92.5292	205.93
3.06	101.563	92.5328	205.904
3.0625	101.586	92.5365	205.878
3.065	101.608	92.5402	205.852
3.0675	101.63	92.5439	205.826
3.07	101.652	92.5477	205.8
3.0725	101.674	92.5516	205.774
3.075	101.696	92.5555	205.748
3.0775	101.718	92.5594	205.723
3.08	101.74	92.5634	205.697
3.0825	101.761	92.5675	205.671
3.085	101.783	92.5716	205.645
3.0875	101.804	92.5757	205.62
3.09	101.826	92.5799	205.594
3.0925	101.847	92.5842	205.569
3.095	101.868	92.5885	205.543
3.0975	101.889	92.5928	205.518
3.1	101.91	92.5972	205.492
3.1025	101.931	92.6017	205.467
3.105	101.952	92.6062	205.442
3.1075	101.973	92.6107	205.417
3.11	101.993	92.6153	205.391
3.1125	102.014	92.6199	205.366
3.115	102.034	92.6246	205.341
3.1175	102.055	92.6294	205.316
3.12	102.075	92.6341	205.291
3.1225	102.095	92.639	205.266
3.125	102.115	92.6438	205.241
3.1275	102.135	92.6488	205.216
3.13	102.155	92.6537	205.191
3.1325	102.175	92.6587	205.166
3.135	102.195	92.6638	205.141
3.1375	102.214	92.6689	205.117
3.14	102.234	92.6741	205.092
3.1425	102.253	92.6793	205.067
3.145	102.273	92.6845	205.043
3.1475	102.292	92.6898	205.018
3.15	102.311	92.6951	204.994
3.1525	102.33	92.7005	204.969
3.155	102.349	92.7059	204.945
3.1575	102.368	92.7114	204.92
3.16	102.387	92.7169	204.896
3.1625	102.406	92.7225	204.872
3.165	102.425	92.7281	204.847
3.1675	102.443	92.7337	204.823
3.17	102.462	92.7394	204.799
3.1725	102.48	92.7451	204.775
3.175	102.498	92.7509	204.751
3.1775	102.517	92.7567	204.727
3.18	102.535	92.7626	204.703
3.1825	102.553	92.7685	204.679
3.185	102.571	92.7744	204.655
3.1875	102.589	92.7804	204.631
3.19	102.606	92.7864	204.607
3.1925	102.624	92.7925	204.583
3.195	102.642	92.7986	204.56
3.1975	102.659	92.8047	204.536
3.2	102.677	92.8109	204.512
3.2025	102.694	92.8172	204.489
3.205	102.711	92.8234	204.465
3.2075	102.728	92.8297	204.442
3.21	102.746	92.8361	204.418
3.2125	102.763	92.8425	204.395
3.215	102.78	92.8489	204.372
3.2175	102.796	92.8554	204.348
3.22	102.813	92.8619	204.325
3.2225	102.83	92.8685	204.302
3.225	102.846	92.875	204.279
3.2275	102.863	92.8817	204.255
3.23	102.879	92.8883	204.232
3.2325	102.896	92.895	204.209
3.235	102.912	92.9018	204.186
3.2375	102.928	92.9086	204.163
3.24	102.944	92.9154	204.14
3.2425	102.96	92.9222	204.118
3.245	102.976	92.9291	204.095
3.2475	102.992	92.9361	204.072
3.25	103.008	92.943	204.049
3.2525	103.023	92.9501	204.027
3.255	103.039	92.9571	204.004
3.2575	103.055	92.9642	203.981
3.26	103.07	92.9713	203.959
3.2625	103.085	92.9784	203.936
3.265	103.101	92.9856	203.914
3.2675	103.116	92.9929	203.891
3.27	103.131	93.0001	203.869
3.2725	103.146	93.0074	203.847
3.275	103.161	93.0148	203.824
3.2775	103.176	93.0221	203.802
3.28	103.19	93.0295	203.78
3.2825	103.205	93.037	203.758
3.285	103.22	93.0444	203.736
3.2875	103.234	93.0519	203.714
3.29	103.249	93.0595	203.692
3.2925	103.263	93.0671	203.67
3.295	103.277	93.0747	203.648
3.2975	103.292	93.0823	203.626
3.3	103.306	93.09	203.604
3.3025	103.32	93.0977	203.583
3.305	103.334	93.1054	203.561
3.3075	103.348	93.1132	203.539
3.31	103.361	93.121	203.518
3.3125	103.375	93.1289	203.496
3.315	103.389	93.1367	203.475
3.3175	103.402	93.1446	203.453
3.32	103.416	93.1526	203.432
3.3225	103.429	93.1606	203.41
3.325	103.443	93.1686	203.389
3.3275	103.456	93.1766	203.368
3.33	103.469	93.1847	203.346
3.3325	103.482	93.1928	203.325
3.335	103.495	93.2009	203.304
3.3375	103.508	93.209	203.283
3.34	103.521	93.2172	203.262
3.3425	103.534	93.2255	203.241
3.345	103.546	93.2337	203.22
3.3475	103.559	93.242	203.199
3.35	103.572	93.2503	203.178
3.3525	103.584	93.2586	203.157
3.355	103.597	93.267	203.136
3.3575	103.609	93.2754	203.116
3.36	103.621	93.2838	203.095
3.3625	103.633	93.2923	203.074
3.365	103.645	93.3008	203.054
3.3675	103.657	93.3093	203.033
3.37	103.669	93.3179	203.013
3.3725	103.681	93.3264	202.992
3.375	103.693	93.335	202.972
3.3775	103.705	93.3437	202.952
3.38	103.716	93.3523	202.931
3.3825	103.728	93.361	202.911
3.385	103.739	93.3697	202.891
3.3875	103.751	93.3785	202.871
3.39	103.762	93.3872	202.851
3.3925	103.774	93.396	202.83
3.395	103.785	93.4049	202.81
3.3975	103.796	93.4137	202.79
3.4	103.807	93.4226	202.771
3.4025	103.818	93.4315	202.751
3.405	103.829	93.4404	202.731
3.4075	103.84	93.4494	202.711
3.41	103.85	93.4584	202.691
3.4125	103.861	93.4674	202.672
3.415	103.872	93.4764	202.652
3.4175	103.882	93.4855	202.632
3.42	103.893	93.4946	202.613
3.4225	103.903	93.5037	202.593
3.425	103.913	93.5128	202.574
3.4275	103.924	93.522	202.554
3.43	103.934	93.5311	202.535
3.4325	103.944	93.5404	202.516
3.435	103.954	93.5496	202.496
3.4375	103.964	93.5589	202.477
3.44	103.974	93.5681	202.458
3.4425	103.984	93.5774	202.439
3.445	103.993	93.5868	202.42
3.4475	104.003	93.5961	202.401
3.45	104.013	93.6055	202.382
3.4525	104.022	93.6149	202.363
3.455	104.032	93.6243	202.344
3.4575	104.041	93.6338	202.325
3.46	104.05	93.6433	202.306
3.4625	104.06	93.6527	202.288
3.465	104.069	93.6623	202.269
3.4675	104.078	93.6718	202.25
3.47	104.087	93.6814	202.232
3.4725	104.096	93.6909	202.213
3.475	104.105	93.7006	202.195
3.4775	104.114	93.7102	202.176
3.48	104.123	93.7198	202.158
3.4825	104.131	93.7295	202.139
3.485	104.14	93.7392	202.121
3.4875	104.148	93.7489	202.103
3.49	104.157	93.7586	202.084
3.4925	104.165	93.7684	202.066
3.495	104.174	93.7782	202.048
3.4975	104.182	93.788	202.03
3.5	104.19	93.7978	202.012
3.5025	104.198	93.8076	201.994
3.505	104.206	93.8175	201.976
3.5075	104.215	93.8273	201.958
3.51	104.222	93.8372	201.94
3.5125	104.23	93.8472	201.922
3.515	104.238	93.8571	201.905
3.5175	104.246	93.867	201.887
3.52	104.254	93.877	201.869
3.5225	104.261	93.887	201.852
3.525	104.269	93.897	201.834
3.5275	104.276	93.907	201.817
3.53	104.284	93.9171	201.799
3.5325	104.291	93.9272	201.782
3.535	104.298	93.9373	201.764
3.5375	104.306	93.9474	201.747
3.54	104.313	93.9575	201.73
3.5425	104.32	93.9676	201.712
3.545	104.327	93.9778	201.695
3.5475	104.334	93.9879	201.678
3.55	104.341	93.9981	201.661
3.5525	104.348	94.0083	201.644
3.555	104.355	94.0186	201.627
3.5575	104.361	94.0288	201.61
3.56	104.368	94.0391	201.593
3.5625	104.374	94.0494	201.576
3.565	104.381	94.0597	201.559
3.5675	104.387	94.07	201.543
3.57	104.394	94.0803	201.526
3.5725	104.4	94.0906	201.509
3.575	104.407	94.101	201.493
3.5775	104.413	94.1114	201.476
3.58	104.419	94.1218	201.459
3.5825	104.425	94.1322	201.443
3.585	104.431	94.1426	201.426
3.5875	104.437	94.153	201.41
3.59	104.443	94.1635	201.394
3.5925	104.449	94.1739	201.377
3.595	104.454	94.1844	201.361
3.5975	104.46	94.1949	201.345
3.6	104.466	94.2054	201.329
3.6025	104.471	94.2159	201.313
3.605	104.477	94.2265	201.297
3.6075	104.482	94.237	201.28
3.61	104.488	94.2476	201.264
3.6125	104.493	94.2582	201.249
3.615	104.499	94.2688	201.233
3.6175	104.504	94.2794	201.217
3.62	104.509	94.29	201.201
3.6225	104.514	94.3006	201.185
3.625	104.519	94.3113	201.17
3.6275	104.524	94.322	201.154
3.63	104.529	94.3326	201.138
3.6325	104.534	94.3433	201.123
3.635	104.539	94.354	201.107
3.6375	104.544	94.3647	201.092
3.64	104.548	94.3755	201.076
3.6425	104.553	94.3862	201.061
3.645	104.557	94.3969	201.046
3.6475	104.562	94.4077	201.03
3.65	104.566	94.4185	201.015
3.6525	104.571	94.4293	201
3.655	104.575	94.4401	200.985
3.6575	104.58	94.4509	200.97
3.66	104.584	94.4617	200.955
3.6625	104.588	94.4725	200.939
3.665	104.592	94.4834	200.925
3.6675	104.596	94.4942	200.91
3.67	104.6	94.5051	200.895
3.6725	104.604	94.5159	200.88
3.675	104.608	94.5268	200.865
3.6775	104.612	94.5377	200.85
3.68	104.616	94.5486	200.836
3.6825	104.619	94.5595	200.821
3.685	104.623	94.5705	200.806
3.6875	104.627	94.5814	200.792
3.69	104.63	94.5924	200.777
3.6925	104.634	94.6033	200.763
3.695	104.637	94.6143	200.748
3.6975	104.641	94.6252	200.734
3.7	104.644	94.6362	200.72
3.7025	104.647	94.6472	200.705
3.705	104.651	94.6582	200.691
3.7075	104.654	94.6692	200.677
3.71	104.657	94.6803	200.663
3.7125	104.66	94.6913	200.649
3.715	104.663	94.7023	200.635
3.7175	104.666	94.7134	200.621
3.72	104.669	94.7244	200.607
3.7225	104.672	94.7355	200.593
3.725	104.675	94.7465	200.579
3.7275	104.677	94.7576	200.565
3.73	104.68	94.7687	200.551
3.7325	104.683	94.7798	200.538
3.735	104.685	94.7909	200.524
3.7375	104.688	94.802	200.51
3.74	104.69	94.8131	200.497
3.7425	104.693	94.8242	200.483
3.745	104.695	94.8354	200.469
3.7475	104.697	94.8465	200.456
3.75	104.7	94.8576	200.443
3.7525	104.702	94.8688	200.429
3.755	104.704	94.8799	200.416
3.7575	104.706	94.8911	200.403
3.76	104.708	94.9023	200.389
3.7625	104.71	94.9134	200.376
3.765	104.712	94.9246	200.363
3.7675	104.714	94.9358	200.35
3.77	104.716	94.947	200.337
3.7725	104.718	94.9582	200.324
3.775	104.72	94.9694	200.311
3.7775	104.722	94.9806	200.298
3.78	104.723	94.9918	200.285
3.7825	104.725	95.003	200.272
3.785	104.727	95.0143	200.259
3.7875	104.728	95.0255	200.246
3.79	104.73	95.0367	200.234
3.7925	104.731	95.048	200.221
3.795	104.732	95.0592	200.208
3.7975	104.734	95.0705	200.196
3.8	104.735	95.0817	200.183
3.8025	104.736	95.093	200.171
3.805	104.737	95.1042	200.158
3.8075	104.739	95.1155	200.146
3.81	104.74	95.1268	200.134
3.8125	104.741	95.1381	200.121
3.815	104.742	95.1493	200.109
3.8175	104.743	95.1606	200.097
3.82	104.744	95.1719	200.084
3.8225	104.745	95.1832	200.072
3.825	104.745	95.1945	200.06
3.8275	104.746	95.2058	200.048
3.83	104.747	95.2171	200.036
3.8325	104.748	95.2284	200.024
3.835	104.748	95.2397	200.012
3.8375	104.749	95.251	200
3.84	104.749	95.2623	199.988
3.8425	104.75	95.2736	199.977
3.845	104.75	95.2849	199.965
3.8475	104.751	95.2962	199.953
3.85	104.751	95.3076	199.941
3.8525	104.751	95.3189	199.93
3.855	104.752	95.3302	199.918
3.8575	104.752	95.3415	199.907
3.86	104.752	95.3528	199.895
3.8625	104.752	95.3642	199.884
3.865	104.752	95.3755	199.872
3.8675	104.752	95.3868	199.861
3.87	104.752	95.3982	199.85
3.8725	104.752	95.4095	199.838
3.875	104.752	95.4208	199.827
3.8775	104.752	95.4322	199.816
3.88	104.752	95.4435	199.805
3.8825	104.752	95.4549	199.794
3.885	104.751	95.4662	199.782
3.8875	104.751	95.4775	199.771
3.89	104.751	95.4889	199.76
3.8925	104.75	95.5002	199.749
3.895	104.75	95.5116	199.739
3.8975	104.749	95.5229	199.728
3.9	104.749	95.5342	199.717
3.9025	104.748	95.5456	199.706
3.905	104.748	95.5569	199.695
3.9075	104.747	95.5683	199.685
3.91	104.746	95.5796	199.674
3.9125	104.746	95.591	199.663
3.915	104.745	95.6023	199.653
3.9175	104.744	95.6136	199.642
3.92	104.743	95.625	199.632
3.9225	104.742	95.6363	199.621
3.925	104.742	95.6477	199.611
3.9275	104.741	95.659	199.6
3.93	104.74	95.6703	199.59
3.9325	104.739	95.6817	199.58
3.935	104.737	95.693	199.57
3.9375	104.736	95.7043	199.559
3.94	104.735	95.7157	199.549
3.9425	104.734	95.727	199.539
3.945	104.733	95.7383	199.529
3.9475	104.731	95.7496	199.519
3.95	104.73	95.761	199.509
3.9525	104.729	95.7723	199.499
3.955	104.727	95.7836	199.489
3.9575	104.726	95.7949	199.479
3.96	104.724	95.8062	199.469
3.9625	104.723	95.8176	199.46
3.965	104.721	95.8289	199.45
3.9675	104.72	95.8402	199.44
3.97	104.718	95.8515	199.43
3.9725	104.716	95.8628	199.421
3.975	104.715	95.8741	199.411
3.9775	104.713	95.8854	199.402
3.98	104.711	95.8967	199.392
3.9825	104.709	95.908	199.383
3.985	104.708	95.9193	199.373
3.9875	104.706	95.9306	199.364
3.99	104.704	95.9419	199.354
3.9925	104.702	95.9531	199.345
3.995	104.7	95.9644	199.336
3.9975	104.698	95.9757	199.327
4	104.696	95.987	199.317
4.0025	104.694	95.9982	199.308
4.005	104.691	96.0095	199.299
4.0075	104.689	96.0207	199.29
4.01	104.687	96.032	199.281
4.0125	104.685	96.0432	199.272
4.015	104.683	96.0545	199.263
4.0175	104.68	96.0657	199.254
4.02	104.678	96.077	199.245
4.0225	104.675	96.0882	199.236
4.025	104.673	96.0994	199.227
4.0275	104.671	96.1107	199.219
4.03	104.668	96.1219	199.21
4.0325	104.666	96.1331	199.201
4.035	104.663	96.1443	199.193
4.0375	104.66	96.1555	199.184
4.04	104.658	96.1667	199.175
4.0425	104.655	96.1779	199.167
4.045	104.652	96.1891	199.158
4.0475	104.65	96.2003	199.15
4.05	104.647	96.2115	199.142
4.0525	104.644	96.2226	199.133
4.055	104.641	96.2338	199.125
4.0575	104.638	96.245	199.117
4.06	104.636	96.2561	199.108
4.0625	104.633	96.2673	199.1
4.065	104.63	96.2784	199.092
4.0675	104.627	96.2896	199.084
4.07	104.624	96.3007	199.076
4.0725	104.621	96.3118	199.068
4.075	104.618	96.323	199.06
4.0775	104.614	96.3341	199.052
4.08	104.611	96.3452	199.044
4.0825	104.608	96.3563	199.036
4.085	104.605	96.3674	199.028
4.0875	104.602	96.3785	199.02
4.09	104.598	96.3896	199.012
4.0925	104.595	96.4006	199.004
4.095	104.592	96.4117	198.997
4.0975	104.588	96.4228	198.989
4.1	104.585	96.4338	198.981
4.1025	104.582	96.4449	198.974
4.105	104.578	96.4559	198.966
4.1075	104.575	96.467	198.958
4.11	104.571	96.478	198.951
4.1125	104.568	96.489	198.943
4.115	104.564	96.5	198.936
4.1175	104.56	96.511	198.929
4.12	104.557	96.522	198.921
4.1225	104.553	96.533	198.914
4.125	104.549	96.544	198.907
4.1275	104.546	96.555	198.899
4.13	104.542	96.5659	198.892
4.1325	104.538	96.5769	198.885
4.135	104.534	96.5879	198.878
4.1375	104.53	96.5988	198.871
4.14	104.527	96.6097	198.864
4.1425	104.523	96.6207	198.857
4.145	104.519	96.6316	198.85
4.1475	104.515	96.6425	198.843
4.15	104.511	96.6534	198.836
4.1525	104.507	96.6643	198.829
4.155	104.503	96.6752	198.822
4.1575	104.499	96.6861	198.815
4.16	104.495	96.6969	198.808
4.1625	104.491	96.7078	198.802
4.165	104.486	96.7187	198.795
4.1675	104.482	96.7295	198.788
4.17	104.478	96.7403	198.782
4.1725	104.474	96.7512	198.775
4.175	104.47	96.762	198.768
4.1775	104.465	96.7728	198.762
4.18	104.461	96.7836	198.755
4.1825	104.457	96.7944	198.749
4.185	104.452	96.8051	198.742
4.1875	104.448	96.8159	198.736
4.19	104.444	96.8267	198.73
4.1925	104.439	96.8374	198.723
4.195	104.435	96.8482	198.717
4.1975	104.43	96.8589	198.711
4.2	104.426	96.8696	198.705
4.2025	104.421	96.8803	198.698
4.205	104.417	96.891	198.692
4.2075	104.412	96.9017	198.686
4.21	104.408	96.9124	198.68
4.2125	104.403	96.9231	198.674
4.215	104.398	96.9338	198.668
4.2175	104.394	96.9444	198.662
4.22	104.389	96.9551	198.656
4.2225	104.384	96.9657	198.65
4.225	104.379	96.9763	198.644
4.2275	104.375	96.9869	198.638
4.23	104.37	96.9975	198.633
4.2325	104.365	97.0081	198.627
4.235	104.36	97.0187	198.621
4.2375	104.355	97.0293	198.615
4.24	104.35	97.0398	198.61
4.2425	104.346	97.0504	198.604
4.245	104.341	97.0609	198.598
4.2475	104.336	97.0714	198.593
4.25	104.331	97.082	198.587
4.2525	104.326	97.0925	198.582
4.255	104.321	97.103	198.576
4.2575	104.316	97.1134	198.571
4.26	104.311	97.1239	198.565
4.2625	104.306	97.1344	198.56
4.265	104.3	97.1448	198.555
4.2675	104.295	97.1553	198.549
4.27	104.29	97.1657	198.544
4.2725	104.285	97.1761	198.539
4.275	104.28	97.1865	198.534
4.2775	104.275	97.1969	198.528
4.28	104.269	97.2073	198.523
4.2825	104.264	97.2177	198.518
4.285	104.259	97.228	198.513
4.2875	104.254	97.2384	198.508
4.29	104.248	97.2487	198.503
4.2925	104.243	97.259	198.498
4.295	104.238	97.2693	198.493
4.2975	104.232	97.2796	198.488
4.3	104.227	97.2899	198.483
4.3025	104.221	97.3002	198.478
4.305	104.216	97.3105	198.474
4.3075	104.211	97.3207	198.469
4.31	104.205	97.3309	198.464
4.3125	104.2	97.3412	198.459
4.315	104.194	97.3514	198.455
4.3175	104.189	97.3616	198.45
4.32	104.183	97.3718	198.445
4.3225	104.177	97.3819	198.441
4.325	104.172	97.3921	198.436
4.3275	104.166	97.4023	198.431
4.33	104.161	97.4124	198.427
4.3325	104.155	97.4225	198.422
4.335	104.149	97.4326	198.418
4.3375	104.144	97.4427	198.414
4.34	104.138	97.4528	198.409
4.3425	104.132	97.4629	198.405
4.345	104.127	97.473	198.401
4.3475	104.121	97.483	198.396
4.35	104.115	97.4931	198.392
4.3525	104.109	97.5031	198.388
4.355	104.103	97.5131	198.383
4.3575	104.098	97.5231	198.379
4.36	104.092	97.5331	198.375
4.3625	104.086	97.543	198.371
4.365	104.08	97.553	198.367
4.3675	104.074	97.5629	198.363
4.37	104.068	97.5729	198.359
4.3725	104.062	97.5828	198.355
4.375	104.056	97.5927	198.351
4.3775	104.05	97.6026	198.347
4.38	104.045	97.6125	198.343
4.3825	104.039	97.6223	198.339
4.385	104.033	97.6322	198.335
4.3875	104.027	97.642	198.331
4.39	104.021	97.6518	198.328
4.3925	104.014	97.6616	198.324
4.395	104.008	97.6714	198.32
4.3975	104.002	97.6812	198.316
4.4	103.996	97.691	198.313
4.4025	103.99	97.7007	198.309
4.405	103.984	97.7105	198.306
4.4075	103.978	97.7202	198.302
4.41	103.972	97.7299	198.298
4.4125	103.966	97.7396	198.295
4.415	103.959	97.7493	198.291
4.4175	103.953	97.759	198.288
4.42	103.947	97.7686	198.284
4.4225	103.941	97.7782	198.281
4.425	103.935	97.7879	198.278
4.4275	103.928	97.7975	198.274
4.43	103.922	97.8071	198.271
4.4325	103.916	97.8167	198.268
4.435	103.909	97.8262	198.264
4.4375	103.903	97.8358	198.261
4.44	103.897	97.8453	198.258
4.4425	103.891	97.8549	198.255
4.445	103.884	97.8644	198.251
4.4475	103.878	97.8739	198.248
4.45	103.871	97.8833	198.245
4.4525	103.865	97.8928	198.242
4.455	103.859	97.9023	198.239
4.4575	103.852	97.9117	198.236
4.46	103.846	97.9211	198.233
4.4625	103.839	97.9305	198.23
4.465	103.833	97.9399	198.227
4.4675	103.827	97.9493	198.224
4.47	103.82	97.9587	198.221
4.4725	103.814	97.968	198.218
4.475	103.807	97.9773	198.216
4.4775	103.801	97.9867	198.213
4.48	103.794	97.996	198.21
4.4825	103.788	98.0052	198.207
4.485	103.781	98.0145	198.204
4.4875	103.774	98.0238	198.202
4.49	103.768	98.033	198.199
4.4925	103.761	98.0422	198.196
4.495	103.755	98.0515	198.194
4.4975	103.748	98.0607	198.191
4.5	103.742	98.0698	198.189
4.5025	103.735	98.079	198.186
4.505	103.728	98.0881	198.184
4.5075	103.722	98.0973	198.181
4.51	103.715	98.1064	198.179
4.5125	103.708	98.1155	198.176
4.515	103.702	98.1246	198.174
4.5175	103.695	98.1337	198.171
4.52	103.688	98.1427	198.169
4.5225	103.682	98.1518	198.167
4.525	103.675	98.1608	198.164
4.5275	103.668	98.1698	198.162
4.53	103.661	98.1788	198.16
4.5325	103.655	98.1878	198.158
4.535	103.648	98.1967	198.155
4.5375	103.641	98.2057	198.153
4.54	103.634	98.2146	198.151
4.5425	103.628	98.2235	198.149
4.545	103.621	98.2324	198.147
4.5475	103.614	98.2413	198.145
4.55	103.607	98.2502	198.143
4.5525	103.6	98.259	198.141
4.555	103.594	98.2679	198.139
4.5575	103.587	98.2767	198.137
4.56	103.58	98.2855	198.135
4.5625	103.573	98.2943	198.133
4.565	103.566	98.3031	198.131
4.5675	103.559	98.3118	198.129
4.57	103.553	98.3206	198.127
4.5725	103.546	98.3293	198.125
4.575	103.539	98.338	198.123
4.5775	103.532	98.3467	198.121
4.58	103.525	98.3554	198.12
4.5825	103.518	98.364	198.118
4.585	103.511	98.3727	198.116
4.5875	103.504	98.3813	198.115
4.59	103.497	98.3899	198.113
4.5925	103.49	98.3985	198.111
4.595	103.483	98.4071	198.11
4.5975	103.476	98.4156	198.108
4.6	103.469	98.4242	198.106
4.6025	103.462	98.4327	198.105
4.605	103.456	98.4412	198.103
4.6075	103.449	98.4497	198.102
4.61	103.442	98.4582	198.1
4.6125	103.435	98.4667	198.099
4.615	103.428	98.4751	198.097
4.6175	103.421	98.4835	198.096
4.62	103.414	98.4919	198.095
4.6225	103.407	98.5003	198.093
4.625	103.399	98.5087	198.092
4.6275	103.392	98.5171	198.09
4.63	103.385	98.5254	198.089
4.6325	103.378	98.5338	198.088
4.635	103.371	98.5421	198.087
4.6375	103.364	98.5504	198.085
4.64	103.357	98.5587	198.084
4.6425	103.35	98.5669	198.083
4.645	103.343	98.5752	198.082
4.6475	103.336	98.5834	198.081
4.65	103.329	98.5916	198.079
4.6525	103.322	98.5998	198.078
4.655	103.315	98.608	198.077
4.6575	103.308	98.6161	198.076
4.66	103.301	98.6243	198.075
4.6625	103.293	98.6324	198.074
4.665	103.286	98.6405	198.073
4.6675	103.279	98.6486	198.072
4.67	103.272	98.6567	198.071
4.6725	103.265	98.6648	198.07
4.675	103.258	98.6728	198.069
4.6775	103.251	98.6808	198.068
4.68	103.244	98.6889	198.068
4.6825	103.236	98.6969	198.067
4.685	103.229	98.7048	198.066
4.6875	103.222	98.7128	198.065
4.69	103.215	98.7207	198.064
4.6925	103.208	98.7287	198.064
4.695	103.201	98.7366	198.063
4.6975	103.193	98.7445	198.062
4.7	103.186	98.7523	198.061
4.7025	103.179	98.7602	198.061
4.705	103.172	98.768	198.06
4.7075	103.165	98.7759	198.059
4.71	103.158	98.7837	198.059
4.7125	103.15	98.7915	198.058
4.715	103.143	98.7992	198.058
4.7175	103.136	98.807	198.057
4.72	103.129	98.8147	198.056
4.7225	103.122	98.8224	198.056
4.725	103.114	98.8301	198.055
4.7275	103.107	98.8378	198.055
4.73	103.1	98.8455	198.054
4.7325	103.093	98.8531	198.054
4.735	103.086	98.8608	198.054
4.7375	103.078	98.8684	198.053
4.74	103.071	98.876	198.053
4.7425	103.064	98.8836	198.052
4.745	103.057	98.8912	198.052
4.7475	103.05	98.8987	198.052
4.75	103.042	98.9062	198.051
4.7525	103.035	98.9137	198.051
4.755	103.028	98.9212	198.051
4.7575	103.021	98.9287	198.051
4.76	103.013	98.9362	198.05
4.7625	103.006	98.9436	198.05
4.765	102.999	98.9511	198.05
4.7675	102.992	98.9585	198.05
4.77	102.984	98.9659	198.05
4.7725	102.977	98.9732	198.05
4.775	102.97	98.9806	198.049
4.7775	102.963	98.9879	198.049
4.78	102.956	98.9953	198.049
4.7825	102.948	99.0026	198.049
4.785	102.941	99.0098	198.049
4.7875	102.934	99.0171	198.049
4.79	102.927	99.0244	198.049
4.7925	102.919	99.0316	198.049
4.795	102.912	99.0388	198.049
4.7975	102.905	99.046	198.049
4.8	102.898	99.0532	198.049
4.8025	102.89	99.0604	198.049
4.805	102.883	99.0675	198.049
4.8075	102.876	99.0747	198.05
4.81	102.869	99.0818	198.05
4.8125	102.861	99.0889	198.05
4.815	102.854	99.096	198.05
4.8175	102.847	99.103	198.05
4.82	102.84	99.1101	198.05
4.8225	102.832	99.1171	198.051
4.825	102.825	99.1241	198.051
4.8275	102.818	99.1311	198.051
4.83	102.811	99.1381	198.051
4.8325	102.803	99.145	198.052
4.835	102.796	99.152	198.052
4.8375	102.789	99.1589	198.052
4.84	102.782	99.1658	198.053
4.8425	102.774	99.1727	198.053
4.845	102.767	99.1795	198.053
4.8475	102.76	99.1864	198.054
4.85	102.753	99.1932	198.054
4.8525	102.745	99.2	198.055
4.855	102.738	99.2068	198.055
4.8575	102.731	99.2136	198.055
4.86	102.724	99.2204	198.056
4.8625	102.716	99.2271	198.056
4.865	102.709	99.2339	198.057
4.8675	102.702	99.2406	198.057
4.87	102.695	99.2473	198.058
4.8725	102.687	99.254	198.059
4.875	102.68	99.2606	198.059
4.8775	102.673	99.2673	198.06
4.88	102.666	99.2739	198.06
4.8825	102.659	99.2805	198.061
4.885	102.651	99.2871	198.062
4.8875	102.644	99.2937	198.062
4.89	102.637	99.3002	198.063
4.8925	102.63	99.3067	198.064
4.895	102.622	99.3133	198.064
4.8975	102.615	99.3198	198.065
4.9	102.608	99.3263	198.066
4.9025	102.601	99.3327	198.066
4.905	102.594	99.3392	198.067
4.9075	102.586	99.3456	198.068
4.91	102.579	99.352	198.069
4.9125	102.572	99.3584	198.07
4.915	102.565	99.3648	198.07
4.9175	102.558	99.3712	198.071
4.92	102.55	99.3775	198.072
4.9225	102.543	99.3838	198.073
4.925	102.536	99.3901	198.074
4.9275	102.529	99.3964	198.075
4.93	102.522	99.4027	198.076
4.9325	102.515	99.409	198.076
4.935	102.507	99.4152	198.077
4.9375	102.5	99.4214	198.078
4.94	102.493	99.4276	198.079
4.9425	102.486	99.4338	198.08
4.945	102.479	99.44	198.081
4.9475	102.472	99.4461	198.082
4.95	102.464	99.4523	198.083
4.9525	102.457	99.4584	198.084
4.955	102.45	99.4645	198.085
4.9575	102.443	99.4706	198.086
4.96	102.436	99.4767	198.088
4.9625	102.429	99.4827	198.089
4.965	102.422	99.4887	198.09
4.9675	102.414	99.4947	198.091
4.97	102.407	99.5007	198.092
4.9725	102.4	99.5067	198.093
4.975	102.393	99.5127	198.094
4.9775	102.386	99.5186	198.095
4.98	102.379	99.5246	198.097
4.9825	102.372	99.5305	198.098
4.985	102.365	99.5364	198.099
4.9875	102.358	99.5422	198.1
4.99	102.35	99.5481	198.101
4.9925	102.343	99.5539	198.103
4.995	102.336	99.5598	198.104
4.9975	102.329	99.5656	198.105
5	102.322	99.5714	198.107
5.0025	102.315	99.5771	198.108
5.005	102.308	99.5829	198.109
5.0075	102.301	99.5886	198.111
5.01	102.294	99.5943	198.112
5.0125	102.287	99.6	198.113
5.015	102.28	99.6057	198.115
5.0175	102.273	99.6114	198.116
5.02	102.266	99.617	198.117
5.0225	102.259	99.6227	198.119
5.025	102.252	99.6283	198.12
5.0275	102.245	99.6339	198.122
5.03	102.237	99.6395	198.123
5.0325	102.23	99.645	198.124
5.035	102.223	99.6506	198.126
5.0375	102.216	99.6561	198.127
5.04	102.209	99.6616	198.129
5.0425	102.202	99.6671	198.13
5.045	102.195	99.6726	198.132
5.0475	102.188	99.6781	198.133
5.05	102.182	99.6835	198.135
5.0525	102.175	99.6889	198.137
5.055	102.168	99.6944	198.138
5.0575	102.161	99.6997	198.14
5.06	102.154	99.7051	198.141
5.0625	102.147	99.7105	198.143
5.065	102.14	99.7158	198.144
5.0675	102.133	99.7212	198.146
5.07	102.126	99.7265	198.148
5.0725	102.119	99.7318	198.149
5.075	102.112	99.737	198.151
5.0775	102.105	99.7423	198.153
5.08	102.098	99.7475	198.154
5.0825	102.091	99.7528	198.156
5.085	102.084	99.758	198.158
5.0875	102.078	99.7631	198.159
5.09	102.071	99.7683	198.161
5.0925	102.064	99.7735	198.163
5.095	102.057	99.7786	198.165
5.0975	102.05	99.7837	198.166
5.1	102.043	99.7888	198.168
5.1025	102.036	99.7939	198.17
5.105	102.029	99.799	198.172
5.1075	102.023	99.8041	198.173
5.11	102.016	99.8091	198.175
5.1125	102.009	99.8141	198.177
5.115	102.002	99.8191	198.179
5.1175	101.995	99.8241	198.181
5.12	101.988	99.8291	198.182
5.1225	101.982	99.834	198.184
5.125	101.975	99.839	198.186
5.1275	101.968	99.8439	198.188
5.13	101.961	99.8488	198.19
5.1325	101.955	99.8537	198.192
5.135	101.948	99.8586	198.194
5.1375	101.941	99.8634	198.196
5.14	101.934	99.8682	198.198
5.1425	101.927	99.8731	198.199
5.145	101.921	99.8779	198.201
5.1475	101.914	99.8827	198.203
5.15	101.907	99.8874	198.205
5.1525	101.901	99.8922	198.207
5.155	101.894	99.8969	198.209
5.1575	101.887	99.9016	198.211
5.16	101.88	99.9064	198.213
5.1625	101.874	99.911	198.215
5.165	101.867	99.9157	198.217
5.1675	101.86	99.9204	198.219
5.17	101.854	99.925	198.221
5.1725	101.847	99.9296	198.223
5.175	101.84	99.9342	198.225
5.1775	101.834	99.9388	198.227
5.18	101.827	99.9434	198.23
5.1825	101.82	99.948	198.232
5.185	101.814	99.9525	198.234
5.1875	101.807	99.957	198.236
5.19	101.801	99.9615	198.238
5.1925	101.794	99.966	198.24
5.195	101.787	99.9705	198.242
5.1975	101.781	99.975	198.244
5.2	101.774	99.9794	198.246
5.2025	101.768	99.9838	198.249
5.205	101.761	99.9882	198.251
5.2075	101.755	99.9926	198.253
5.21	101.748	99.997	198.255
5.2125	101.741	100.001	198.257
5.215	101.735	100.006	198.259
5.2175	101.728	100.01	198.262
5.22	101.722	100.014	198.264
5.2225	101.715	100.019	198.266
5.225	101.709	100.023	198.268
5.2275	101.702	100.027	198.27
5.23	101.696	100.031	198.273
5.2325	101.689	100.036	198.275
5.235	101.683	100.04	198.277
5.2375	101.677	100.044	198.279
5.24	101.67	100.048	198.282
5.2425	101.664	100.052	198.284
5.245	101.657	100.057	198.286
5.2475	101.651	100.061	198.288
5.25	101.644	100.065	198.291
5.2525	101.638	100.069	198.293
5.255	101.632	100.073	198.295
5.2575	101.625	100.077	198.298
5.26	101.619	100.081	198.3
5.2625	101.612	100.085	198.302
5.265	101.606	100.089	198.305
5.2675	101.6	100.093	198.307
5.27	101.593	100.097	198.309
5.2725	101.587	100.101	198.312
5.275	101.581	100.105	198.314
5.2775	101.574	100.109	198.317
5.28	101.568	100.113	198.319
5.2825	101.562	100.117	198.321
5.285	101.555	100.121	198.324
5.2875	101.549	100.125	198.326
5.29	101.543	100.129	198.328
5.2925	101.537	100.133	198.331
5.295	101.53	100.136	198.333
5.2975	101.524	100.14	198.336
5.3	101.518	100.144	198.338
5.3025	101.512	100.148	198.341
5.305	101.505	100.152	198.343
5.3075	101.499	100.155	198.346
5.31	101.493	100.159	198.348
5.3125	101.487	100.163	198.35
5.315	101.481	100.167	198.353
5.3175	101.474	100.17	198.355
5.32	101.468	100.174	198.358
5.3225	101.462	100.178	198.36
5.325	101.456	100.181	198.363
5.3275	101.45	100.185	198.365
5.33	101.444	100.188	198.368
5.3325	101.438	100.192	198.37
5.335	101.431	100.196	198.373
5.3375	101.425	100.199	198.375
5.34	101.419	100.203	198.378
5.3425	101.413	100.206	198.381
5.345	101.407	100.21	198.383
5.3475	101.401	100.213	198.386
5.35	101.395	100.217	198.388
5.3525	101.389	100.22	198.391
5.355	101.383	100.224	198.393
5.3575	101.377	100.227	198.396
5.36	101.371	100.231	198.398
5.3625	101.365	100.234	198.401
5.365	101.359	100.238	198.404
5.3675	101.353	100.241	198.406
5.37	101.347	100.244	198.409
5.3725	101.341	100.248	198.411
5.375	101.335	100.251	198.414
5.3775	101.329	100.254	198.417
5.38	101.323	100.258	198.419
5.3825	101.317	100.261	198.422
5.385	101.311	100.264	198.424
5.3875	101.305	100.268	198.427
5.39	101.299	100.271	198.43
5.3925	101.293	100.274	198.432
5.395	101.288	100.277	198.435
5.3975	101.282	100.281	198.438
5.4	101.276	100.284	198.44
5.4025	101.27	100.287	198.443
5.405	101.264	100.29	198.446
5.4075	101.258	100.293	198.448
5.41	101.252	100.297	198.451
5.4125	101.247	100.3	198.454
5.415	101.241	100.303	198.456
5.4175	101.235	100.306	198.459
5.42	101.229	100.309	198.462
5.4225	101.223	100.312	198.464
5.425	101.218	100.315	198.467
5.4275	101.212	100.318	198.47
5.43	101.206	100.321	198.473
5.4325	101.201	100.324	198.475
5.435	101.195	100.327	198.478
5.4375	101.189	100.33	198.481
5.44	101.183	100.333	198.483
5.4425	101.178	100.336	198.486
5.445	101.172	100.339	198.489
5.4475	101.166	100.342	198.492
5.45	101.161	100.345	198.494
5.4525	101.155	100.348	198.497
5.455	101.149	100.351	198.5
5.4575	101.144	100.354	198.503
5.46	101.138	100.356	198.505
5.4625	101.133	100.359	198.508
5.465	101.127	100.362	198.511
5.4675	101.121	100.365	198.514
5.47	101.116	100.368	198.516
5.4725	101.11	100.371	198.519
5.475	101.105	100.373	198.522
5.4775	101.099	100.376	198.525
5.48	101.094	100.379	198.528
5.4825	101.088	100.382	198.53
5.485	101.082	100.384	198.533
5.4875	101.077	100.387	198.536
5.49	101.071	100.39	198.539
5.4925	101.066	100.392	198.542
5.495	101.061	100.395	198.544
5.4975	101.055	100.398	198.547
5.5	101.05	100.4	198.55
5.5025	101.044	100.403	198.553
5.505	101.039	100.406	198.556
5.5075	101.033	100.408	198.558
5.51	101.028	100.411	198.561
5.5125	101.023	100.413	198.564
5.515	101.017	100.416	198.567
5.5175	101.012	100.418	198.57
5.52	101.006	100.421	198.573
5.5225	101.001	100.424	198.575
5.525	100.996	100.426	198.578
5.5275	100.99	100.429	198.581
5.53	100.985	100.431	198.584
5.5325	100.98	100.433	198.587
5.535	100.974	100.436	198.59
5.5375	100.969	100.438	198.593
5.54	100.964	100.441	198.595
5.5425	100.959	100.443	198.598
5.545	100.953	100.446	198.601
5.5475	100.948	100.448	198.604
5.55	100.943	100.45	198.607
5.5525	100.938	100.453	198.61
5.555	100.932	100.455	198.613
5.5575	100.927	100.457	198.615
5.56	100.922	100.46	198.618
5.5625	100.917	100.462	198.621
5.565	100.912	100.464	198.624
5.5675	100.906	100.467	198.627
5.57	100.901	100.469	198.63
5.5725	100.896	100.471	198.633
5.575	100.891	100.473	198.636
5.5775	100.886	100.476	198.639
5.58	100.881	100.478	198.641
5.5825	100.876	100.48	198.644
5.585	100.871	100.482	198.647
5.5875	100.865	100.484	198.65
5.59	100.86	100.487	198.653
5.5925	100.855	100.489	198.656
5.595	100.85	100.491	198.659
5.5975	100.845	100.493	198.662
5.6	100.84	100.495	198.665
5.6025	100.835	100.497	198.668
5.605	100.83	100.499	198.67
5.6075	100.825	100.501	198.673
5.61	100.82	100.503	198.676
5.6125	100.815	100.506	198.679
5.615	100.81	100.508	198.682
5.6175	100.805	100.51	198.685
5.62	100.8	100.512	198.688
5.6225	100.796	100.514	198.691
5.625	100.791	100.516	198.694
5.6275	100.786	100.518	198.697
5.63	100.781	100.52	198.7
5.6325	100.776	100.522	198.703
5.635	100.771	100.523	198.705
5.6375	100.766	100.525	198.708
5.64	100.761	100.527	198.711
5.6425	100.757	100.529	198.714
5.645	100.752	100.531	198.717
5.6475	100.747	100.533	198.72
5.65	100.742	100.535	198.723
5.6525	100.737	100.537	198.726
5.655	100.732	100.539	198.729
5.6575	100.728	100.54	198.732
5.66	100.723	100.542	198.735
5.6625	100.718	100.544	198.738
5.665	100.713	100.546	198.741
5.6675	100.709	100.548	198.744
5.67	100.704	100.549	198.747
5.6725	100.699	100.551	198.749
5.675	100.695	100.553	198.752
5.6775	100.69	100.555	198.755
5.68	100.685	100.556	198.758
5.6825	100.681	100.558	198.761
5.685	100.676	100.56	198.764
5.6875	100.671	100.562	198.767
5.69	100.667	100.563	198.77
5.6925	100.662	100.565	198.773
5.695	100.657	100.567	198.776
5.6975	100.653	100.568	198.779
5.7	100.648	100.57	198.782
5.7025	100.644	100.571	198.785
5.705	100.639	100.573	198.788
5.7075	100.635	100.575	198.791
5.71	100.63	100.576	198.794
5.7125	100.626	100.578	198.797
5.715	100.621	100.579	198.8
5.7175	100.617	100.581	198.803
5.72	100.612	100.582	198.805
5.7225	100.608	100.584	198.808
5.725	100.603	100.586	198.811
5.7275	100.599	100.587	198.814
5.73	100.594	100.589	198.817
5.7325	100.59	100.59	198.82
5.735	100.585	100.592	198.823
5.7375	100.581	100.593	198.826
5.74	100.576	100.594	198.829
5.7425	100.572	100.596	198.832
5.745	100.568	100.597	198.835
5.7475	100.563	100.599	198.838
5.75	100.559	100.6	198.841
5.7525	100.555	100.602	198.844
5.755	100.55	100.603	198.847
5.7575	100.546	100.604	198.85
5.76	100.542	100.606	198.853
5.7625	100.537	100.607	198.856
5.765	100.533	100.608	198.859
5.7675	100.529	100.61	198.861
5.77	100.524	100.611	198.864
5.7725	100.52	100.612	198.867
5.775	100.516	100.614	198.87
5.7775	100.512	100.615	198.873
5.78	100.508	100.616	198.876
5.7825	100.503	100.618	198.879
5.785	100.499	100.619	198.882
5.7875	100.495	100.62	198.885
5.79	100.491	100.621	198.888
5.7925	100.487	100.623	198.891
5.795	100.482	100.624	198.894
5.7975	100.478	100.625	198.897
5.8	100.474	100.626	198.9
5.8025	100.47	100.627	198.903
5.805	100.466	100.628	198.906
5.8075	100.462	100.63	198.909
5.81	100.458	100.631	198.912
5.8125	100.454	100.632	198.914
5.815	100.45	100.633	198.917
5.8175	100.445	100.634	198.92
5.82	100.441	100.635	198.923
5.8225	100.437	100.636	198.926
5.825	100.433	100.638	198.929
5.8275	100.429	100.639	198.932
5.83	100.425	100.64	198.935
5.8325	100.421	100.641	198.938
5.835	100.417	100.642	198.941
5.8375	100.413	100.643	198.944
5.84	100.409	100.644	198.947
5.8425	100.405	100.645	198.95
5.845	100.401	100.646	198.953
5.8475	100.398	100.647	198.955
5.85	100.394	100.648	198.958
5.8525	100.39	100.649	198.961
5.855	100.386	100.65	198.964
5.8575	100.382	100.651	198.967
5.86	100.378	100.652	198.97
5.8625	100.374	100.653	198.973
5.865	100.37	100.654	198.976
5.8675	100.367	100.655	198.979
5.87	100.363	100.656	198.982
5.8725	100.359	100.656	198.985
5.875	100.355	100.657	198.988
5.8775	100.351	100.658	198.99
5.88	100.347	100.659	198.993
5.8825	100.344	100.66	198.996
5.885	100.34	100.661	198.999
5.8875	100.336	100.662	199.002
5.89	100.332	100.663	199.005
5.8925	100.329	100.663	199.008
5.895	100.325	100.664	199.011
5.8975	100.321	100.665	199.014
5.9	100.318	100.666	199.017
5.9025	100.314	100.667	199.019
5.905	100.31	100.667	199.022
5.9075	100.307	100.668	199.025
5.91	100.303	100.669	199.028
5.9125	100.299	100.67	199.031
5.915	100.296	100.67	199.034
5.9175	100.292	100.671	199.037
5.92	100.288	100.672	199.04
5.9225	100.285	100.673	199.043
5.925	100.281	100.673	199.045
5.9275	100.278	100.674	199.048
5.93	100.274	100.675	199.051
5.9325	100.271	100.675	199.054
5.935	100.267	100.676	199.057
5.9375	100.263	100.677	199.06
5.94	100.26	100.677	199.063
5.9425	100.256	100.678	199.066
5.945	100.253	100.679	199.068
5.9475	100.249	100.679	199.071
5.95	100.246	100.68	199.074
5.9525	100.242	100.681	199.077
5.955	100.239	100.681	199.08
5.9575	100.236	100.682	199.083
5.96	100.232	100.682	199.086
5.9625	100.229	100.683	199.088
5.965	100.225	100.684	199.091
5.9675	100.222	100.684	199.094
5.97	100.218	100.685	199.097
5.9725	100.215	100.685	199.1
5.975	100.212	100.686	199.103
5.9775	100.208	100.686	199.105
5.98	100.205	100.687	199.108
5.9825	100.202	100.687	199.111
5.985	100.198	100.688	199.114
5.9875	100.195	100.688	199.117
5.99	100.192	100.689	199.12
5.9925	100.188	100.689	199.122
5.995	100.185	100.69	199.125
5.9975	100.182	100.69	199.128
6	100.179	100.691	199.131
6.0025	100.175	100.691	199.134
6.005	100.172	100.692	199.136
6.0075	100.169	100.692	199.139
6.01	100.166	100.692	199.142
6.0125	100.162	100.693	199.145
6.015	100.159	100.693	199.148
6.0175	100.156	100.694	199.15
6.02	100.153	100.694	199.153
6.0225	100.15	100.694	199.156
6.025	100.146	100.695	199.159
6.0275	100.143	100.695	199.162
6.03	100.14	100.695	199.164
6.0325	100.137	100.696	199.167
6.035	100.134	100.696	199.17
6.0375	100.131	100.696	199.173
6.04	100.128	100.697	199.176
6.0425	100.125	100.697	199.178
6.045	100.122	100.697	199.181
6.0475	100.118	100.698	199.184
6.05	100.115	100.698	199.187
6.0525	100.112	100.698	199.189
6.055	100.109	100.699	199.192
6.0575	100.106	100.699	199.195
6.06	100.103	100.699	199.198
6.0625	100.1	100.699	199.2
6.065	100.097	100.7	199.203
6.0675	100.094	100.7	199.206
6.07	100.091	100.7	199.209
6.0725	100.088	100.7	199.211
6.075	100.085	100.701	199.214
6.0775	100.082	100.701	199.217
6.08	100.08	100.701	199.22
6.0825	100.077	100.701	199.222
6.085	100.074	100.701	199.225
6.0875	100.071	100.702	199.228
6.09	100.068	100.702	199.23
6.0925	100.065	100.702	199.233
6.095	100.062	100.702	199.236
6.0975	100.059	100.702	199.239
6.1	100.056	100.702	199.241
6.1025	100.054	100.702	199.244
6.105	100.051	100.703	199.247
6.1075	100.048	100.703	199.249
6.11	100.045	100.703	199.252
6.1125	100.042	100.703	199.255
6.115	100.04	100.703	199.257
6.1175	100.037	100.703	199.26
6.12	100.034	100.703	199.263
6.1225	100.031	100.703	199.265
6.125	100.028	100.703	199.268
6.1275	100.026	100.703	199.271
6.13	100.023	100.704	199.273
6.1325	100.02	100.704	199.276
6.135	100.018	100.704	199.279
6.1375	100.015	100.704	199.281
6.14	100.012	100.704	199.284
6.1425	100.009	100.704	199.287
6.145	100.007	100.704	199.289
6.1475	100.004	100.704	199.292
6.15	100.002	100.704	199.295
6.1525	99.9989	100.704	199.297
6.155	99.9962	100.704	199.3
6.1575	99.9936	100.704	199.303
6.16	99.991	100.704	199.305
6.1625	99.9884	100.704	199.308
6.165	99.9858	100.704	199.311
6.1675	99.9832	100.704	199.313
6.17	99.9807	100.704	199.316
6.1725	99.9781	100.704	199.318
6.175	99.9755	100.703	199.321
6.1775	99.973	100.703	199.324
6.18	99.9705	100.703	199.326
6.1825	99.968	100.703	199.329
6.185	99.9654	100.703	199.331
6.1875	99.9629	100.703	199.334
6.19	99.9604	100.703	199.337
6.1925	99.958	100.703	199.339
6.195	99.9555	100.703	199.342
6.1975	99.953	100.703	199.344
6.2	99.9506	100.703	199.347
6.2025	99.9481	100.702	199.349
6.205	99.9457	100.702	199.352
6.2075	99.9433	100.702	199.355
6.21	99.9409	100.702	199.357
6.2125	99.9385	100.702	199.36
6.215	99.9361	100.702	199.362
6.2175	99.9337	100.702	199.365
6.22	99.9313	100.701	199.367
6.2225	99.9289	100.701	199.37
6.225	99.9266	100.701	199.372
6.2275	99.9242	100.701	199.375
6.23	99.9219	100.701	199.377
6.2325	99.9196	100.7	199.38
6.235	99.9172	100.7	199.383
6.2375	99.9149	100.7	199.385
6.24	99.9126	100.7	199.388
6.2425	99.9103	100.7	199.39
6.245	99.9081	100.699	199.393
6.2475	99.9058	100.699	199.395
6.25	99.9035	100.699	199.398
6.2525	99.9013	100.699	199.4
6.255	99.899	100.698	199.403
6.2575	99.8968	100.698	199.405
6.26	99.8946	100.698	199.408
6.2625	99.8924	100.698	199.41
6.265	99.8902	100.697	199.413
6.2675	99.888	100.697	199.415
6.27	99.8858	100.697	199.417
6.2725	99.8836	100.696	199.42
6.275	99.8814	100.696	199.422
6.2775	99.8793	100.696	199.425
6.28	99.8771	100.696	199.427
6.2825	99.875	100.695	199.43
6.285	99.8728	100.695	199.432
6.2875	99.8707	100.695	199.435
6.29	99.8686	100.694	199.437
6.2925	99.8665	100.694	199.44
6.295	99.8644	100.694	199.442
6.2975	99.8623	100.693	199.444
6.3	99.8602	100.693	199.447
6.3025	99.8582	100.693	199.449
6.305	99.8561	100.692	199.452
6.3075	99.8541	100.692	199.454
6.31	99.852	100.691	199.457
6.3125	99.85	100.691	199.459
6.315	99.848	100.691	199.461
6.3175	99.846	100.69	199.464
6.32	99.844	100.69	199.466
6.3225	99.842	100.69	199.468
6.325	99.84	100.689	199.471
6.3275	99.838	100.689	199.473
6.33	99.836	100.688	199.476
6.3325	99.8341	100.688	199.478
6.335	99.8321	100.687	199.48
6.3375	99.8302	100.687	199.483
6.34	99.8283	100.687	199.485
6.3425	99.8263	100.686	199.487
6.345	99.8244	100.686	199.49
6.3475	99.8225	100.685	199.492
6.35	99.8206	100.685	199.495
6.3525	99.8187	100.684	199.497
6.355	99.8168	100.684	199.499
6.3575	99.815	100.683	199.502
6.36	99.8131	100.683	199.504
6.3625	99.8113	100.683	199.506
6.365	99.8094	100.682	199.509
6.3675	99.8076	100.682	199.511
6.37	99.8058	100.681	199.513
6.3725	99.8039	100.681	199.515
6.375	99.8021	100.68	199.518
6.3775	99.8003	100.68	199.52
6.38	99.7985	100.679	199.522
6.3825	99.7968	100.679	199.525
6.385	99.795	100.678	199.527
6.3875	99.7932	100.678	199.529
6.39	99.7915	100.677	199.532
6.3925	99.7897	100.677	199.534
6.395	99.788	100.676	199.536
6.3975	99.7862	100.675	199.538
6.4	99.7845	100.675	199.541
6.4025	99.7828	100.674	199.543
6.405	99.7811	100.674	199.545
6.4075	99.7794	100.673	199.547
6.41	99.7777	100.673	199.55
6.4125	99.776	100.672	199.552
6.415	99.7743	100.672	199.554
6.4175	99.7727	100.671	199.556
6.42	99.771	100.67	199.559
6.4225	99.7694	100.67	199.561
6.425	99.7677	100.669	199.563
6.4275	99.7661	100.669	199.565
6.43	99.7645	100.668	199.567
6.4325	99.7629	100.667	199.57
6.435	99.7613	100.667	199.572
6.4375	99.7597	100.666	199.574
6.44	99.7581	100.666	199.576
6.4425	99.7565	100.665	199.578
6.445	99.7549	100.664	199.581
6.4475	99.7534	100.664	199.583
6.45	99.7518	100.663	199.585
6.4525	99.7503	100.663	199.587
6.455	99.7487	100.662	199.589
6.4575	99.7472	100.661	199.591
6.46	99.7457	100.661	199.594
6.4625	99.7441	100.66	199.596
6.465	99.7426	100.659	199.598
6.4675	99.7411	100.659	199.6
6.47	99.7396	100.658	199.602
6.4725	99.7382	100.657	199.604
6.475	99.7367	100.657	199.607
6.4775	99.7352	100.656	199.609
6.48	99.7338	100.655	199.611
6.4825	99.7323	100.655	199.613
6.485	99.7309	100.654	199.615
6.4875	99.7294	100.653	199.617
6.49	99.728	100.653	199.619
6.4925	99.7266	100.652	199.621
6.495	99.7252	100.651	199.623
6.4975	99.7238	100.651	199.626
6.5	99.7224	100.65	199.628
6.5025	99.721	100.649	199.63
6.505	99.7196	100.649	199.632
6.5075	99.7182	100.648	199.634
6.51	99.7169	100.647	199.636
6.5125	99.7155	100.646	199.638
6.515	99.7142	100.646	199.64
6.5175	99.7128	100.645	199.642
6.52	99.7115	100.644	199.644
6.5225	99.7102	100.644	199.646
6.525	99.7088	100.643	199.648
6.5275	99.7075	100.642	199.65
6.53	99.7062	100.641	199.652
6.5325	99.7049	100.641	199.654
6.535	99.7037	100.64	199.656
6.5375	99.7024	100.639	199.659
6.54	99.7011	100.638	199.661
6.5425	99.6998	100.638	199.663
6.545	99.6986	100.637	199.665
6.5475	99.6973	100.636	199.667
6.55	99.6961	100.635	199.669
6.5525	99.6949	100.635	199.671
6.555	99.6936	100.634	199.673
6.5575	99.6924	100.633	199.675
6.56	99.6912	100.632	199.677
6.5625	99.69	100.631	199.679
6.565	99.6888	100.631	199.681
6.5675	99.6876	100.63	199.682
6.57	99.6864	100.629	199.684
6.5725	99.6853	100.628	199.686
6.575	99.6841	100.628	199.688
6.5775	99.6829	100.627	199.69
6.58	99.6818	100.626	199.692
6.5825	99.6806	100.625	199.694
6.585	99.6795	100.624	199.696
6.5875	99.6784	100.624	199.698
6.59	99.6772	100.623	199.7
6.5925	99.6761	100.622	199.702
6.595	99.675	100.621	199.704
6.5975	99.6739	100.62	199.706
6.6	99.6728	100.619	199.708
6.6025	99.6717	100.619	199.71
6.605	99.6706	100.618	199.712
6.6075	99.6696	100.617	199.713
6.61	99.6685	100.616	199.715
6.6125	99.6674	100.615	199.717
6.615	99.6664	100.614	199.719
6.6175	99.6654	100.614	199.721
6.62	99.6643	100.613	199.723
6.6225	99.6633	100.612	199.725
6.625	99.6623	100.611	199.727
6.6275	99.6612	100.61	199.729
6.63	99.6602	100.609	199.73
6.6325	99.6592	100.609	199.732
6.635	99.6582	100.608	199.734
6.6375	99.6572	100.607	199.736
6.64	99.6563	100.606	199.738
6.6425	99.6553	100.605	199.74
6.645	99.6543	100.604	199.741
6.6475	99.6534	100.603	199.743
6.65	99.6524	100.602	199.745
6.6525	99.6515	100.602	199.747
6.655	99.6505	100.601	199.749
6.6575	99.6496	100.6	199.751
6.66	99.6487	100.599	199.752
6.6625	99.6477	100.598	199.754
6.665	99.6468	100.597	199.756
6.6675	99.6459	100.596	199.758
6.67	99.645	100.595	199.76
6.6725	99.6441	100.594	199.761
6.675	99.6432	100.594	199.763
6.6775	99.6424	100.593	199.765
6.68	99.6415	100.592	199.767
6.6825	99.6406	100.591	199.768
6.685	99.6398	100.59	199.77
6.6875	99.6389	100.589	199.772
6.69	99.6381	100.588	199.774
6.6925	99.6372	100.587	199.776
6.695	99.6364	100.586	199.777
6.6975	99.6356	100.585	199.779
6.7	99.6347	100.585	199.781
6.7025	99.6339	100.584	199.782
6.705	99.6331	100.583	199.784
6.7075	99.6323	100.582	199.786
6.71	99.6315	100.581	199.788
6.7125	99.6307	100.58	199.789
6.715	99.63	100.579	199.791
6.7175	99.6292	100.578	199.793
6.72	99.6284	100.577	199.794
6.7225	99.6277	100.576	199.796
6.725	99.6269	100.575	199.798
6.7275	99.6262	100.574	199.8
6.73	99.6254	100.573	199.801
6.7325	99.6247	100.572	199.803
6.735	99.6239	100.571	199.805
6.7375	99.6232	100.571	199.806
6.74	99.6225	100.57	199.808
6.7425	99.6218	100.569	199.81
6.745	99.6211	100.568	199.811
6.7475	99.6204	100.567	199.813
6.75	99.6197	100.566	199.815
6.7525	99.619	100.565	199.816
6.755	99.6183	100.564	199.818
6.7575	99.6176	100.563	199.819
6.76	99.617	100.562	199.821
6.7625	99.6163	100.561	199.823
6.765	99.6157	100.56	199.824
6.7675	99.615	100.559	199.826
6.77	99.6144	100.558	199.828
6.7725	99.6137	100.557	199.829
6.775	99.6131	100.556	199.831
6.7775	99.6125	100.555	199.832
6.78	99.6118	100.554	199.834
6.7825	99.6112	100.553	199.836
6.785	99.6106	100.552	199.837
6.7875	99.61	100.551	199.839
6.79	99.6094	100.55	199.84
6.7925	99.6088	100.549	199.842
6.795	99.6083	100.548	199.843
6.7975	99.6077	100.547	199.845
6.8	99.6071	100.546	199.847
6.8025	99.6065	100.545	199.848
6.805	99.606	100.544	199.85
6.8075	99.6054	100.543	199.851
6.81	99.6049	100.542	199.853
6.8125	99.6043	100.541	199.854
6.815	99.6038	100.54	199.856
6.8175	99.6033	100.539	199.857
6.82	99.6027	100.538	199.859
6.8225	99.6022	100.537	199.86
6.825	99.6017	100.536	199.862
6.8275	99.6012	100.535	199.863
6.83	99.6007	100.534	199.865
6.8325	99.6002	100.533	199.866
6.835	99.5997	100.532	199.868
6.8375	99.5992	100.531	199.869
6.84	99.5987	100.53	199.871
6.8425	99.5982	100.529	199.872
6.845	99.5978	100.528	199.874
6.8475	99.5973	100.527	199.875
6.85	99.5968	100.526	199.877
6.8525	99.5964	100.525	199.878
6.855	99.5959	100.524	199.88
6.8575	99.5955	100.523	199.881
6.86	99.5951	100.522	199.883
6.8625	99.5946	100.521	199.884
6.865	99.5942	100.52	199.886
6.8675	99.5938	100.519	199.887
6.87	99.5934	100.518	199.888
6.8725	99.593	100.517	199.89
6.875	99.5926	100.516	199.891
6.8775	99.5922	100.515	199.893
6.88	99.5918	100.514	199.894
6.8825	99.5914	100.513	199.896
6.885	99.591	100.512	199.897
6.8875	99.5906	100.511	199.898
6.89	99.5902	100.51	199.9
6.8925	99.5899	100.509	199.901
6.895	99.5895	100.508	199.903
6.8975	99.5891	100.507	199.904
6.9	99.5888	100.506	199.905
6.9025	99.5884	100.505	199.907
6.905	99.5881	100.504	199.908
6.9075	99.5878	100.503	199.91
6.91	99.5874	100.502	199.911
6.9125	99.5871	100.501	199.912
6.915	99.5868	100.5	199.914
6.9175	99.5865	100.499	199.915
6.92	99.5862	100.498	199.916
6.9225	99.5859	100.496	199.918
6.925	99.5856	100.495	199.919
6.9275	99.5853	100.494	199.92
6.93	99.585	100.493	199.922
6.9325	99.5847	100.492	199.923
6.935	99.5844	100.491	199.924
6.9375	99.5841	100.49	199.926
6.94	99.5839	100.489	199.927
6.9425	99.5836	100.488	199.928
6.945	99.5833	100.487	199.93
6.9475	99.5831	100.486	199.931
6.95	99.5828	100.485	199.932
6.9525	99.5826	100.484	199.933
6.955	99.5823	100.483	199.935
6.9575	99.5821	100.482	199.936
6.96	99.5819	100.481	199.937
6.9625	99.5816	100.48	199.939
6.965	99.5814	100.479	199.94
6.9675	99.5812	100.478	199.941
6.97	99.581	100.477	199.942
6.9725	99.5808	100.476	199.944
6.975	99.5806	100.474	199.945
6.9775	99.5804	100.473	199.946
6.98	99.5802	100.472	199.947
6.9825	99.58	100.471	199.949
6.985	99.5798	100.47	199.95
6.9875	99.5796	100.469	199.951
6.99	99.5794	100.468	199.952
6.9925	99.5793	100.467	199.954
6.995	99.5791	100.466	199.955
6.9975	99.5789	100.465	199.956
7	99.5788	100.464	199.957
7.0025	99.5786	100.463	199.958
7.005	99.5785	100.462	199.96
7.0075	99.5783	100.461	199.961
7.01	99.5782	100.46	199.962
7.0125	99.5781	100.459	199.963
7.015	99.5779	100.458	199.964
7.0175	99.5778	100.457	199.966
7.02	99.5777	100.455	199.967
7.0225	99.5776	100.454	199.968
7.025	99.5775	100.453	199.969
7.0275	99.5773	100.452	199.97
7.03	99.5772	100.451	199.972
7.0325	99.5771	100.45	199.973
7.035	99.577	100.449	199.974
7.0375	99.577	100.448	199.975
7.04	99.5769	100.447	199.976
7.0425	99.5768	100.446	199.977
7.045	99.5767	100.445	199.978
7.0475	99.5766	100.444	199.98
7.05	99.5766	100.443	199.981
7.0525	99.5765	100.442	199.982
7.055	99.5764	100.441	199.983
7.0575	99.5764	100.44	199.984
7.06	99.5763	100.438	199.985
7.0625	99.5763	100.437	199.986
7.065	99.5762	100.436	199.987
7.0675	99.5762	100.435	199.989
7.07	99.5762	100.434	199.99
7.0725	99.5761	100.433	199.991
7.075	99.5761	100.432	199.992
7.0775	99.5761	100.431	199.993
7.08	99.5761	100.43	199.994
7.0825	99.576	100.429	199.995
7.085	99.576	100.428	199.996
7.0875	99.576	100.427	199.997
7.09	99.576	100.426	199.998
7.0925	99.576	100.425	199.999
7.095	99.576	100.424	200
7.0975	99.576	100.422	200.001
7.1	99.576	100.421	200.003
7.1025	99.5761	100.42	200.004
7.105	99.5761	100.419	200.005
7.1075	99.5761	100.418	200.006
7.11	99.5761	100.417	200.007
7.1125	99.5762	100.416	200.008
7.115	99.5762	100.415	200.009
7.1175	99.5762	100.414	200.01
7.12	99.5763	100.413	200.011
7.1225	99.5763	100.412	200.012
7.125	99.5764	100.411	200.013
7.1275	99.5764	100.41	200.014
7.13	99.5765	100.409	200.015
7.1325	99.5765	100.408	200.016
7.135	99.5766	100.407	200.017
7.1375	99.5767	100.405	200.018
7.14	99.5768	100.404	200.019
7.1425	99.5768	100.403	200.02
7.145	99.5769	100.402	200.021
7.1475	99.577	100.401	200.022
7.15	99.5771	100.4	200.023
7.1525	99.5772	100.399	200.024
7.155	99.5773	100.398	200.025
7.1575	99.5774	100.397	200.026
7.16	99.5775	100.396	200.027
7.1625	99.5776	100.395	200.028
7.165	99.5777	100.394	200.029
7.1675	99.5778	100.393	200.029
7.17	99.5779	100.392	200.03
7.1725	99.578	100.391	200.031
7.175	99.5782	100.39	200.032
7.1775	99.5783	100.389	200.033
7.18	99.5784	100.387	200.034
7.1825	99.5785	100.386	200.035
7.185	99.5787	100.385	200.036
7.1875	99.5788	100.384	200.037
7.19	99.579	100.383	200.038
7.1925	99.5791	100.382	200.039
7.195	99.5793	100.381	200.04
7.1975	99.5794	100.38	200.041
7.2	99.5796	100.379	200.041
7.2025	99.5797	100.378	200.042
7.205	99.5799	100.377	200.043
7.2075	99.5801	100.376	200.044
7.21	99.5802	100.375	200.045
7.2125	99.5804	100.374	200.046
7.215	99.5806	100.373	200.047
7.2175	99.5808	100.372	200.048
7.22	99.581	100.371	200.048
7.2225	99.5811	100.37	200.049
7.225	99.5813	100.368	200.05
7.2275	99.5815	100.367	200.051
7.23	99.5817	100.366	200.052
7.2325	99.5819	100.365	200.053
7.235	99.5821	100.364	200.054
7.2375	99.5823	100.363	200.054
7.24	99.5825	100.362	200.055
7.2425	99.5828	100.361	200.056
7.245	99.583	100.36	200.057
7.2475	99.5832	100.359	200.058
7.25	99.5834	100.358	200.059
7.2525	99.5836	100.357	200.059
7.255	99.5839	100.356	200.06
7.2575	99.5841	100.355	200.061
7.26	99.5843	100.354	200.062
7.2625	99.5846	100.353	200.063
7.265	99.5848	100.352	200.063
7.2675	99.5851	100.351	200.064
7.27	99.5853	100.35	200.065
7.2725	99.5856	100.349	200.066
7.275	99.5858	100.348	200.067
7.2775	99.5861	100.347	200.067
7.28	99.5863	100.345	200.068
7.2825	99.5866	100.344	200.069
7.285	99.5868	100.343	200.07
7.2875	99.5871	100.342	200.071
7.29	99.5874	100.341	200.071
7.2925	99.5876	100.34	200.072
7.295	99.5879	100.339	200.073
7.2975	99.5882	100.338	200.074
7.3	99.5885	100.337	200.074
7.3025	99.5888	100.336	200.075
7.305	99.5891	100.335	200.076
7.3075	99.5893	100.334	200.077
7.31	99.5896	100.333	200.077
7.3125	99.5899	100.332	200.078
7.315	99.5902	100.331	200.079
7.3175	99.5905	100.33	200.079
7.32	99.5908	100.329	200.08
7.3225	99.5911	100.328	200.081
7.325	99.5914	100.327	200.082
7.3275	99.5918	100.326	200.082
7.33	99.5921	100.325	200.083
7.3325	99.5924	100.324	200.084
7.335	99.5927	100.323	200.084
7.3375	99.593	100.322	200.085
7.34	99.5933	100.321	200.086
7.3425	99.5937	100.32	200.087
7.345	99.594	100.319	200.087
7.3475	99.5943	100.318	200.088
7.35	99.5947	100.317	200.089
7.3525	99.595	100.316	200.089
7.355	99.5953	100.315	200.09
7.3575	99.5957	100.314	200.091
7.36	99.596	100.313	200.091
7.3625	99.5964	100.312	200.092
7.365	99.5967	100.311	200.093
7.3675	99.5971	100.31	200.093
7.37	99.5974	100.309	200.094
7.3725	99.5978	100.308	200.095
7.375	99.5981	100.307	200.095
7.3775	99.5985	100.306	200.096
7.38	99.5989	100.305	200.097
7.3825	99.5992	100.304	200.097
7.385	99.5996	100.303	200.098
7.3875	99.6	100.302	200.098
7.39	99.6004	100.301	200.099
7.3925	99.6007	100.3	200.1
7.395	99.6011	100.299	200.1
7.3975	99.6015	100.298	200.101
7.4	99.6019	100.297	200.102
7.4025	99.6023	100.296	200.102
7.405	99.6026	100.295	200.103
7.4075	99.603	100.294	200.103
7.41	99.6034	100.293	200.104
7.4125	99.6038	100.292	200.105
7.415	99.6042	100.291	200.105
7.4175	99.6046	100.29	200.106
7.42	99.605	100.289	200.106
7.4225	99.6054	100.288	200.107
7.425	99.6058	100.287	200.108
7.4275	99.6062	100.286	200.108
7.43	99.6066	100.285	200.109
7.4325	99.607	100.284	200.109
7.435	99.6075	100.283	200.11
7.4375	99.6079	100.282	200.11
7.44	99.6083	100.281	200.111
7.4425	99.6087	100.28	200.112
7.445	99.6091	100.279	200.112
7.4475	99.6096	100.278	200.113
7.45	99.61	100.277	200.113
7.4525	99.6104	100.276	200.114
7.455	99.6108	100.275	200.114
7.4575	99.6113	100.274	200.115
7.46	99.6117	100.273	200.115
7.4625	99.6121	100.272	200.116
7.465	99.6126	100.271	200.116
7.4675	99.613	100.27	200.117
7.47	99.6135	100.269	200.118
7.4725	99.6139	100.268	200.118
7.475	99.6144	100.267	200.119
7.4775	99.6148	100.266	200.119
7.48	99.6153	100.265	200.12
7.4825	99.6157	100.264	200.12
7.485	99.6162	100.263	200.121
7.4875	99.6166	100.262	200.121
7.49	99.6171	100.261	200.122
7.4925	99.6175	100.26	200.122
7.495	99.618	100.259	200.123
7.4975	99.6185	100.258	200.123
7.5	99.6189	100.257	200.124
7.5025	99.6194	100.257	200.124
7.505	99.6199	100.256	200.125
7.5075	99.6203	100.255	200.125
7.51	99.6208	100.254	200.126
7.5125	99.6213	100.253	200.126
7.515	99.6218	100.252	200.126
7.5175	99.6222	100.251	200.127
7.52	99.6227	100.25	200.127
7.5225	99.6232	100.249	200.128
7.525	99.6237	100.248	200.128
7.5275	99.6242	100.247	200.129
7.53	99.6246	100.246	200.129
7.5325	99.6251	100.245	200.13
7.535	99.6256	100.244	200.13
7.5375	99.6261	100.243	200.131
7.54	99.6266	100.242	200.131
7.5425	99.6271	100.241	200.131
7.545	99.6276	100.24	200.132
7.5475	99.6281	100.24	200.132
7.55	99.6286	100.239	200.133
7.5525	99.6291	100.238	200.133
7.555	99.6296	100.237	200.134
7.5575	99.6301	100.236	200.134
7.56	99.6306	100.235	200.134
7.5625	99.6311	100.234	200.135
7.565	99.6316	100.233	200.135
7.5675	99.6321	100.232	200.136
7.57	99.6326	100.231	200.136
7.5725	99.6332	100.23	200.137
7.575	99.6337	100.229	200.137
7.5775	99.6342	100.228	200.137
7.58	99.6347	100.228	200.138
7.5825	99.6352	100.227	200.138
7.585	99.6358	100.226	200.139
7.5875	99.6363	100.225	200.139
7.59	99.6368	100.224	200.139
7.5925	99.6373	100.223	200.14
7.595	99.6378	100.222	200.14
7.5975	99.6384	100.221	200.14
7.6	99.6389	100.22	200.141
7.6025	99.6394	100.219	200.141
7.605	99.64	100.218	200.142
7.6075	99.6405	100.218	200.142
7.61	99.641	100.217	200.142
7.6125	99.6416	100.216	200.143
7.615	99.6421	100.215	200.143
7.6175	99.6427	100.214	200.143
7.62	99.6432	100.213	200.144
7.6225	99.6437	100.212	200.144
7.625	99.6443	100.211	200.144
7.6275	99.6448	100.21	200.145
7.63	99.6454	100.209	200.145
7.6325	99.6459	100.209	200.145
7.635	99.6465	100.208	200.146
7.6375	99.647	100.207	200.146
7.64	99.6476	100.206	200.146
7.6425	99.6481	100.205	200.147
7.645	99.6487	100.204	200.147
7.6475	99.6492	100.203	200.147
7.65	99.6498	100.202	200.148
7.6525	99.6503	100.202	200.148
7.655	99.6509	100.201	200.148
7.6575	99.6514	100.2	200.149
7.66	99.652	100.199	200.149
7.6625	99.6526	100.198	200.149
7.665	99.6531	100.197	200.15
7.6675	99.6537	100.196	200.15
7.67	99.6543	100.195	200.15
7.6725	99.6548	100.195	200.151
7.675	99.6554	100.194	200.151
7.6775	99.656	100.193	200.151
7.68	99.6565	100.192	200.151
7.6825	99.6571	100.191	200.152
7.685	99.6577	100.19	200.152
7.6875	99.6582	100.189	200.152
7.69	99.6588	100.189	200.153
7.6925	99.6594	100.188	200.153
7.695	99.66	100.187	200.153
7.6975	99.6605	100.186	200.153
7.7	99.6611	100.185	200.154
7.7025	99.6617	100.184	200.154
7.705	99.6623	100.183	200.154
7.7075	99.6629	100.183	200.155
7.71	99.6634	100.182	200.155
7.7125	99.664	100.181	200.155
7.715	99.6646	100.18	200.155
7.7175	99.6652	100.179	200.156
7.72	99.6658	100.178	200.156
7.7225	99.6664	100.178	200.156
7.725	99.667	100.177	200.156
7.7275	99.6675	100.176	200.157
7.73	99.6681	100.175	200.157
7.7325	99.6687	100.174	200.157
7.735	99.6693	100.173	200.157
7.7375	99.6699	100.173	200.158
7.74	99.6705	100.172	200.158
7.7425	99.6711	100.171	200.158
7.745	99.6717	100.17	200.158
7.7475	99.6723	100.169	200.158
7.75	99.6729	100.168	200.159
7.7525	99.6735	100.168	200.159
7.755	99.6741	100.167	200.159
7.7575	99.6747	100.166	200.159
7.76	99.6753	100.165	200.16
7.7625	99.6759	100.164	200.16
7.765	99.6765	100.164	200.16
7.7675	99.6771	100.163	200.16
7.77	99.6777	100.162	200.16
7.7725	99.6783	100.161	200.161
7.775	99.6789	100.16	200.161
7.7775	99.6795	100.16	200.161
7.78	99.6801	100.159	200.161
7.7825	99.6807	100.158	200.161
7.785	99.6813	100.157	200.162
7.7875	99.6819	100.156	200.162
7.79	99.6825	100.156	200.162
7.7925	99.6831	100.155	200.162
7.795	99.6837	100.154	200.162
7.7975	99.6843	100.153	200.162
7.8	99.685	100.152	200.163
7.8025	99.6856	100.152	200.163
7.805	99.6862	100.151	200.163
7.8075	99.6868	100.15	200.163
7.81	99.6874	100.149	200.163
7.8125	99.688	100.148	200.164
7.815	99.6886	100.148	200.164
7.8175	99.6892	100.147	200.164
7.82	99.6899	100.146	200.164
7.8225	99.6905	100.145	200.164
7.825	99.6911	100.145	200.164
7.8275	99.6917	100.144	200.164
7.83	99.6923	100.143	200.165
7.8325	99.6929	100.142	200.165
7.835	99.6936	100.142	200.165
7.8375	99.6942	100.141	200.165
7.84	99.6948	100.14	200.165
7.8425	99.6954	100.139	200.165
7.845	99.696	100.138	200.165
7.8475	99.6967	100.138	200.166
7.85	99.6973	100.137	200.166
7.8525	99.6979	100.136	200.166
7.855	99.6985	100.135	200.166
7.8575	99.6992	100.135	200.166
7.86	99.6998	100.134	200.166
7.8625	99.7004	100.133	200.166
7.865	99.701	100.132	200.167
7.8675	99.7017	100.132	200.167
7.87	99.7023	100.131	200.167
7.8725	99.7029	100.13	200.167
7.875	99.7035	100.129	200.167
7.8775	99.7042	100.129	200.167
7.88	99.7048	100.128	200.167
7.8825	99.7054	100.127	200.167
7.885	99.7061	100.126	200.167
7.8875	99.7067	100.126	200.168
7.89	99.7073	100.125	200.168
7.8925	99.7079	100.124	200.168
7.895	99.7086	100.124	200.168
7.8975	99.7092	100.123	200.168
7.9	99.7098	100.122	200.168
7.9025	99.7105	100.121	200.168
7.905	99.7111	100.121	200.168
7.9075	99.7117	100.12	200.168
7.91	99.7124	100.119	200.168
7.9125	99.713	100.118	200.169
7.915	99.7136	100.118	200.169
7.9175	99.7143	100.117	200.169
7.92	99.7149	100.116	200.169
7.9225	99.7155	100.116	200.169
7.925	99.7162	100.115	200.169
7.9275	99.7168	100.114	200.169
7.93	99.7174	100.113	200.169
7.9325	99.7181	100.113	200.169
7.935	99.7187	100.112	200.169
7.9375	99.7193	100.111	200.169
7.94	99.72	100.111	200.169
7.9425	99.7206	100.11	200.169
7.945	99.7212	100.109	200.169
7.9475	99.7219	100.109	200.17
7.95	99.7225	100.108	200.17
7.9525	99.7232	100.107	200.17
7.955	99.7238	100.107	200.17
7.9575	99.7244	100.106	200.17
7.96	99.7251	100.105	200.17
7.9625	99.7257	100.104	200.17
7.965	99.7263	100.104	200.17
7.9675	99.727	100.103	200.17
7.97	99.7276	100.102	200.17
7.9725	99.7283	100.102	200.17
7.975	99.7289	100.101	200.17
7.9775	99.7295	100.1	200.17
7.98	99.7302	100.1	200.17
7.9825	99.7308	100.099	200.17
7.985	99.7315	100.098	200.17
7.9875	99.7321	100.098	200.17
7.99	99.7327	100.097	200.17
7.9925	99.7334	100.096	200.17
7.995	99.734	100.096	200.17
7.9975	99.7346	100.095	200.17
8	99.7353	100.094	200.17
8.0025	99.7359	100.094	200.17
8.005	99.7366	100.093	200.17
8.0075	99.7372	100.092	200.17
8.01	99.7378	100.092	200.17
8.0125	99.7385	100.091	200.17
8.015	99.7391	100.09	200.171
8.0175	99.7398	100.09	200.171
8.02	99.7404	100.089	200.171
8.0225	99.741	100.088	200.171
8.025	99.7417	100.088	200.171
8.0275	99.7423	100.087	200.171
8.03	99.743	100.086	200.171
8.0325	99.7436	100.086	200.171
8.035	99.7442	100.085	200.171
8.0375	99.7449	100.085	200.171
8.04	99.7455	100.084	200.171
8.0425	99.7462	100.083	200.171
8.045	99.7468	100.083	200.171
8.0475	99.7474	100.082	200.171
8.05	99.7481	100.081	200.171
8.0525	99.7487	100.081	200.171
8.055	99.7494	100.08	200.17
8.0575	99.75	100.08	200.17
8.06	99.7506	100.079	200.17
8.0625	99.7513	100.078	200.17
8.065	99.7519	100.078	200.17
8.0675	99.7526	100.077	200.17
8.07	99.7532	100.076	200.17
8.0725	99.7538	100.076	200.17
8.075	99.7545	100.075	200.17
8.0775	99.7551	100.075	200.17
8.08	99.7558	100.074	200.17
8.0825	99.7564	100.073	200.17
8.085	99.757	100.073	200.17
8.0875	99.7577	100.072	200.17
8.09	99.7583	100.072	200.17
8.0925	99.759	100.071	200.17
8.095	99.7596	100.07	200.17
8.0975	99.7602	100.07	200.17
8.1	99.7609	100.069	200.17
8.1025	99.7615	100.069	200.17
8.105	99.7621	100.068	200.17
8.1075	99.7628	100.067	200.17
8.11	99.7634	100.067	200.17
8.1125	99.7641	100.066	200.17
8.115	99.7647	100.066	200.17
8.1175	99.7653	100.065	200.17
8.12	99.766	100.064	200.17
8.1225	99.7666	100.064	200.17
8.125	99.7672	100.063	200.17
8.1275	99.7679	100.063	200.169
8.13	99.7685	100.062	200.169
8.1325	99.7692	100.061	200.169
8.135	99.7698	100.061	200.169
8.1375	99.7704	100.06	200.169
8.14	99.7711	100.06	200.169
8.1425	99.7717	100.059	200.169
8.145	99.7723	100.059	200.169
8.1475	99.773	100.058	200.169
8.15	99.7736	100.057	200.169
8.1525	99.7742	100.057	200.169
8.155	99.7749	100.056	200.169
8.1575	99.7755	100.056	200.169
8.16	99.7761	100.055	200.169
8.1625	99.7768	100.055	200.169
8.165	99.7774	100.054	200.169
8.1675	99.778	100.054	200.168
8.17	99.7787	100.053	200.168
8.1725	99.7793	100.052	200.168
8.175	99.7799	100.052	200.168
8.1775	99.7805	100.051	200.168
8.18	99.7812	100.051	200.168
8.1825	99.7818	100.05	200.168
8.185	99.7824	100.05	200.168
8.1875	99.7831	100.049	200.168
8.19	99.7837	100.049	200.168
8.1925	99.7843	100.048	200.168
8.195	99.785	100.048	200.168
8.1975	99.7856	100.047	200.167
8.2	99.7862	100.046	200.167
8.2025	99.7868	100.046	200.167
8.205	99.7875	100.045	200.167
8.2075	99.7881	100.045	200.167
8.21	99.7887	100.044	200.167
8.2125	99.7893	100.044	200.167
8.215	99.79	100.043	200.167
8.2175	99.7906	100.043	200.167
8.22	99.7912	100.042	200.167
8.2225	99.7918	100.042	200.166
8.225	99.7925	100.041	200.166
8.2275	99.7931	100.041	200.166
8.23	99.7937	100.04	200.166
8.2325	99.7943	100.04	200.166
8.235	99.795	100.039	200.166
8.2375	99.7956	100.039	200.166
8.24	99.7962	100.038	200.166
8.2425	99.7968	100.038	200.166
8.245	99.7975	100.037	200.165
8.2475	99.7981	100.037	200.165
8.25	99.7987	100.036	200.165
8.2525	99.7993	100.036	200.165
8.255	99.7999	100.035	200.165
8.2575	99.8005	100.035	200.165
8.26	99.8012	100.034	200.165
8.2625	99.8018	100.034	200.165
8.265	99.8024	100.033	200.165
8.2675	99.803	100.033	200.164
8.27	99.8036	100.032	200.164
8.2725	99.8043	100.032	200.164
8.275	99.8049	100.031	200.164
8.2775	99.8055	100.031	200.164
8.28	99.8061	100.03	200.164
8.2825	99.8067	100.03	200.164
8.285	99.8073	100.029	200.164
8.2875	99.8079	100.029	200.163
8.29	99.8086	100.028	200.163
8.2925	99.8092	100.028	200.163
8.295	99.8098	100.027	200.163
8.2975	99.8104	100.027	200.163
8.3	99.811	100.026	200.163
8.3025	99.8116	100.026	200.163
8.305	99.8122	100.025	200.162
8.3075	99.8128	100.025	200.162
8.31	99.8134	100.024	200.162
8.3125	99.814	100.024	200.162
8.315	99.8146	100.024	200.162
8.3175	99.8153	100.023	200.162
8.32	99.8159	100.023	200.162
8.3225	99.8165	100.022	200.161
8.325	99.8171	100.022	200.161
8.3275	99.8177	100.021	200.161
8.33	99.8183	100.021	200.161
8.3325	99.8189	100.02	200.161
8.335	99.8195	100.02	200.161
8.3375	99.8201	100.019	200.161
8.34	99.8207	100.019	200.16
8.3425	99.8213	100.018	200.16
8.345	99.8219	100.018	200.16
8.3475	99.8225	100.018	200.16
8.35	99.8231	100.017	200.16
8.3525	99.8237	100.017	200.16
8.355	99.8243	100.016	200.159
8.3575	99.8249	100.016	200.159
8.36	99.8255	100.015	200.159
8.3625	99.8261	100.015	200.159
8.365	99.8267	100.015	200.159
8.3675	99.8273	100.014	200.159
8.37	99.8279	100.014	200.158
8.3725	99.8285	100.013	200.158
8.375	99.8291	100.013	200.158
8.3775	99.8296	100.012	200.158
8.38	99.8302	100.012	200.158
8.3825	99.8308	100.012	200.158
8.385	99.8314	100.011	200.157
8.3875	99.832	100.011	200.157
8.39	99.8326	100.01	200.157
8.3925	99.8332	100.01	200.157
8.395	99.8338	100.009	200.157
8.3975	99.8344	100.009	200.157
8.4	99.835	100.009	200.156
8.4025	99.8355	100.008	200.156
8.405	99.8361	100.008	200.156
8.4075	99.8367	100.007	200.156
8.41	99.8373	100.007	200.156
8.4125	99.8379	100.007	200.156
8.415	99.8385	100.006	200.155
8.4175	99.839	100.006	200.155
8.42	99.8396	100.005	200.155
8.4225	99.8402	100.005	200.155
8.425	99.8408	100.005	200.155
8.4275	99.8414	100.004	200.154
8.43	99.8419	100.004	200.154
8.4325	99.8425	100.003	200.154
8.435	99.8431	100.003	200.154
8.4375	99.8437	100.003	200.154
8.44	99.8443	100.002	200.154
8.4425	99.8448	100.002	200.153
8.445	99.8454	100.001	200.153
8.4475	99.846	100.001	200.153
8.45	99.8466	100.001	200.153
8.4525	99.8471	100	200.153
8.455	99.8477	99.9999	200.152
8.4575	99.8483	99.9995	200.152
8.46	99.8488	99.9991	200.152
8.4625	99.8494	99.9987	200.152
8.465	99.85	99.9984	200.152
8.4675	99.8505	99.998	200.151
8.47	99.8511	99.9976	200.151
8.4725	99.8517	99.9973	200.151
8.475	99.8522	99.9969	200.151
8.4775	99.8528	99.9965	200.151
8.48	99.8534	99.9961	200.15
8.4825	99.8539	99.9958	200.15
8.485	99.8545	99.9954	200.15
8.4875	99.8551	99.9951	200.15
8.49	99.8556	99.9947	200.15
8.4925	99.8562	99.9943	200.149
8.495	99.8567	99.994	200.149
8.4975	99.8573	99.9936	200.149
8.5	99.8579	99.9933	200.149
8.5025	99.8584	99.9929	200.149
8.505	99.859	99.9926	200.148
8.5075	99.8595	99.9922	200.148
8.51	99.8601	99.9919	200.148
8.5125	99.8606	99.9915	200.148
8.515	99.8612	99.9912	200.148
8.5175	99.8618	99.9908	200.147
8.52	99.8623	99.9905	200.147
8.5225	99.8629	99.9901	200.147
8.525	99.8634	99.9898	200.147
8.5275	99.864	99.9894	200.147
8.53	99.8645	99.9891	200.146
8.5325	99.8651	99.9888	200.146
8.535	99.8656	99.9884	200.146
8.5375	99.8662	99.9881	200.146
8.54	99.8667	99.9878	200.146
8.5425	99.8672	99.9874	200.145
8.545	99.8678	99.9871	200.145
8.5475	99.8683	99.9868	200.145
8.55	99.8689	99.9864	200.145
8.5525	99.8694	99.9861	200.144
8.555	99.87	99.9858	200.144
8.5575	99.8705	99.9855	200.144
8.56	99.871	99.9851	200.144
8.5625	99.8716	99.9848	200.144
8.565	99.8721	99.9845	200.143
8.5675	99.8727	99.9842	200.143
8.57	99.8732	99.9839	200.143
8.5725	99.8737	99.9835	200.143
8.575	99.8743	99.9832	200.143
8.5775	99.8748	99.9829	200.142
8.58	99.8753	99.9826	200.142
8.5825	99.8759	99.9823	200.142
8.585	99.8764	99.982	200.142
8.5875	99.8769	99.9817	200.141
8.59	99.8775	99.9814	200.141
8.5925	99.878	99.9811	200.141
8.595	99.8785	99.9807	200.141
8.5975	99.879	99.9804	200.141
8.6	99.8796	99.9801	200.14
8.6025	99.8801	99.9798	200.14
8.605	99.8806	99.9795	200.14
8.6075	99.8811	99.9792	200.14
8.61	99.8817	99.979	200.139
8.6125	99.8822	99.9787	200.139
8.615	99.8827	99.9784	200.139
8.6175	99.8832	99.9781	200.139
8.62	99.8837	99.9778	200.138
8.6225	99.8843	99.9775	200.138
8.625	99.8848	99.9772	200.138
8.6275	99.8853	99.9769	200.138
8.63	99.8858	99.9766	200.138
8.6325	99.8863	99.9763	200.137
8.635	99.8868	99.9761	200.137
8.6375	99.8874	99.9758	200.137
8.64	99.8879	99.9755	200.137
8.6425	99.8884	99.9752	200.136
8.645	99.8889	99.9749	200.136
8.6475	99.8894	99.9747	200.136
8.65	99.8899	99.9744	200.136
8.6525	99.8904	99.9741	200.135
8.655	99.8909	99.9738	200.135
8.6575	99.8914	99.9736	200.135
8.66	99.8919	99.9733	200.135
8.6625	99.8924	99.973	200.135
8.665	99.8929	99.9728	200.134
8.6675	99.8935	99.9725	200.134
8.67	99.894	99.9722	200.134
8.6725	99.8945	99.972	200.134
8.675	99.895	99.9717	200.133
8.6775	99.8955	99.9714	200.133
8.68	99.896	99.9712	200.133
8.6825	99.8965	99.9709	200.133
8.685	99.8969	99.9707	200.132
8.6875	99.8974	99.9704	200.132
8.69	99.8979	99.9701	200.132
8.6925	99.8984	99.9699	200.132
8.695	99.8989	99.9696	200.131
8.6975	99.8994	99.9694	200.131
8.7	99.8999	99.9691	200.131
8.7025	99.9004	99.9689	200.131
8.705	99.9009	99.9686	200.13
8.7075	99.9014	99.9684	200.13
8.71	99.9019	99.9681	200.13
8.7125	99.9024	99.9679	200.13
8.715	99.9028	99.9677	200.13
8.7175	99.9033	99.9674	200.129
8.72	99.9038	99.9672	200.129
8.7225	99.9043	99.9669	200.129
8.725	99.9048	99.9667	200.129
8.7275	99.9053	99.9665	200.128
8.73	99.9057	99.9662	200.128
8.7325	99.9062	99.966	200.128
8.735	99.9067	99.9658	200.128
8.7375	99.9072	99.9655	200.127
8.74	99.9077	99.9653	200.127
8.7425	99.9081	99.9651	200.127
8.745	99.9086	99.9648	200.127
8.7475	99.9091	99.9646	200.126
8.75	99.9095	99.9644	200.126
8.7525	99.91	99.9641	200.126
8.755	99.9105	99.9639	200.126
8.7575	99.911	99.9637	200.125
8.76	99.9114	99.9635	200.125
8.7625	99.9119	99.9633	200.125
8.765	99.9124	99.963	200.125
8.7675	99.9128	99.9628	200.124
8.77	99.9133	99.9626	200.124
8.7725	99.9138	99.9624	200.124
8.775	99.9142	99.9622	200.124
8.7775	99.9147	99.962	200.123
8.78	99.9152	99.9617	200.123
8.7825	99.9156	99.9615	200.123
8.785	99.9161	99.9613	200.123
8.7875	99.9165	99.9611	200.122
8.79	99.917	99.9609	200.122
8.7925	99.9175	99.9607	200.122
8.795	99.9179	99.9605	200.122
8.7975	99.9184	99.9603	200.121
8.8	99.9188	99.9601	200.121
8.8025	99.9193	99.9599	200.121
8.805	99.9197	99.9597	200.121
8.8075	99.9202	99.9595	200.12
8.81	99.9206	99.9593	200.12
8.8125	99.9211	99.9591	200.12
8.815	99.9215	99.9589	200.12
8.8175	99.922	99.9587	200.119
8.82	99.9224	99.9585	200.119
8.8225	99.9229	99.9583	200.119
8.825	99.9233	99.9581	200.119
8.8275	99.9238	99.9579	200.118
8.83	99.9242	99.9577	200.118
8.8325	99.9246	99.9575	200.118
8.835	99.9251	99.9574	200.118
8.8375	99.9255	99.9572	200.117
8.84	99.926	99.957	200.117
8.8425	99.9264	99.9568	200.117
8.845	99.9268	99.9566	200.117
8.8475	99.9273	99.9564	200.116
8.85	99.9277	99.9563	200.116
8.8525	99.9281	99.9561	200.116
8.855	99.9286	99.9559	200.116
8.8575	99.929	99.9557	200.115
8.86	99.9294	99.9555	200.115
8.8625	99.9299	99.9554	200.115
8.865	99.9303	99.9552	200.115
8.8675	99.9307	99.955	200.114
8.87	99.9312	99.9548	200.114
8.8725	99.9316	99.9547	200.114
8.875	99.932	99.9545	200.113
8.8775	99.9324	99.9543	200.113
8.88	99.9329	99.9542	200.113
8.8825	99.9333	99.954	200.113
8.885	99.9337	99.9538	200.112
8.8875	99.9341	99.9537	200.112
8.89	99.9345	99.9535	200.112
8.8925	99.935	99.9533	200.112
8.895	99.9354	99.9532	200.111
8.8975	99.9358	99.953	200.111
8.9	99.9362	99.9529	200.111
8.9025	99.9366	99.9527	200.111
8.905	99.937	99.9525	200.11
8.9075	99.9375	99.9524	200.11
8.91	99.9379	99.9522	200.11
8.9125	99.9383	99.9521	200.11
8.915	99.9387	99.9519	200.109
8.9175	99.9391	99.9518	200.109
8.92	99.9395	99.9516	200.109
8.9225	99.9399	99.9515	200.109
8.925	99.9403	99.9513	200.108
8.9275	99.9407	99.9512	200.108
8.93	99.9411	99.951	200.108
8.9325	99.9415	99.9509	200.108
8.935	99.9419	99.9507	200.107
8.9375	99.9423	99.9506	200.107
8.94	99.9427	99.9504	200.107
8.9425	99.9431	99.9503	200.107
8.945	99.9435	99.9501	200.106
8.9475	99.9439	99.95	200.106
8.95	99.9443	99.9499	200.106
8.9525	99.9447	99.9497	200.106
8.955	99.9451	99.9496	200.105
8.9575	99.9455	99.9495	200.105
8.96	99.9459	99.9493	200.105
8.9625	99.9463	99.9492	200.104
8.965	99.9467	99.9491	200.104
8.9675	99.9471	99.9489	200.104
8.97	99.9475	99.9488	200.104
8.9725	99.9479	99.9487	200.103
8.975	99.9483	99.9485	200.103
8.9775	99.9486	99.9484	200.103
8.98	99.949	99.9483	200.103
8.9825	99.9494	99.9481	200.102
8.985	99.9498	99.948	200.102
8.9875	99.9502	99.9479	200.102
8.99	99.9506	99.9478	200.102
8.9925	99.9509	99.9476	200.101
8.995	99.9513	99.9475	200.101
8.9975	99.9517	99.9474	200.101
9	99.9521	99.9473	200.101
9.0025	99.9525	99.9472	200.1
9.005	99.9528	99.947	200.1
9.0075	99.9532	99.9469	200.1
9.01	99.9536	99.9468	200.1
9.0125	99.954	99.9467	200.099
9.015	99.9543	99.9466	200.099
9.0175	99.9547	99.9465	200.099
9.02	99.9551	99.9464	200.099
9.0225	99.9554	99.9462	200.098
9.025	99.9558	99.9461	200.098
9.0275	99.9562	99.946	200.098
9.03	99.9565	99.9459	200.098
9.0325	99.9569	99.9458	200.097
9.035	99.9573	99.9457	200.097
9.0375	99.9576	99.9456	200.097
9.04	99.958	99.9455	200.097
9.0425	99.9584	99.9454	200.096
9.045	99.9587	99.9453	200.096
9.0475	99.9591	99.9452	200.096
9.05	99.9594	99.9451	200.095
9.0525	99.9598	99.945	200.095
9.055	99.9602	99.9449	200.095
9.0575	99.9605	99.9448	200.095
9.06	99.9609	99.9447	200.094
9.0625	99.9612	99.9446	200.094
9.065	99.9616	99.9445	200.094
9.0675	99.9619	99.9444	200.094
9.07	99.9623	99.9443	200.093
9.0725	99.9626	99.9442	200.093
9.075	99.963	99.9441	200.093
9.0775	99.9633	99.944	200.093
9.08	99.9637	99.9439	200.092
9.0825	99.964	99.9438	200.092
9.085	99.9644	99.9437	200.092
9.0875	99.9647	99.9437	200.092
9.09	99.965	99.9436	200.091
9.0925	99.9654	99.9435	200.091
9.095	99.9657	99.9434	200.091
9.0975	99.9661	99.9433	200.091
9.1	99.9664	99.9432	200.09
9.1025	99.9667	99.9431	200.09
9.105	99.9671	99.9431	200.09
9.1075	99.9674	99.943	200.09
9.11	99.9678	99.9429	200.089
9.1125	99.9681	99.9428	200.089
9.115	99.9684	99.9427	200.089
9.1175	99.9688	99.9427	200.089
9.12	99.9691	99.9426	200.088
9.1225	99.9694	99.9425	200.088
9.125	99.9697	99.9424	200.088
9.1275	99.9701	99.9423	200.088
9.13	99.9704	99.9423	200.087
9.1325	99.9707	99.9422	200.087
9.135	99.9711	99.9421	200.087
9.1375	99.9714	99.9421	200.087
9.14	99.9717	99.942	200.086
9.1425	99.972	99.9419	200.086
9.145	99.9724	99.9418	200.086
9.1475	99.9727	99.9418	200.086
9.15	99.973	99.9417	200.085
9.1525	99.9733	99.9416	200.085
9.155	99.9736	99.9416	200.085
9.1575	99.9739	99.9415	200.085
9.16	99.9743	99.9414	200.084
9.1625	99.9746	99.9414	200.084
9.165	99.9749	99.9413	200.084
9.1675	99.9752	99.9413	200.084
9.17	99.9755	99.9412	200.083
9.1725	99.9758	99.9411	200.083
9.175	99.9761	99.9411	200.083
9.1775	99.9765	99.941	200.083
9.18	99.9768	99.941	200.082
9.1825	99.9771	99.9409	200.082
9.185	99.9774	99.9408	200.082
9.1875	99.9777	99.9408	200.082
9.19	99.978	99.9407	200.081
9.1925	99.9783	99.9407	200.081
9.195	99.9786	99.9406	200.081
9.1975	99.9789	99.9406	200.081
9.2	99.9792	99.9405	200.08
9.2025	99.9795	99.9405	200.08
9.205	99.9798	99.9404	200.08
9.2075	99.9801	99.9404	200.08
9.21	99.9804	99.9403	200.079
9.2125	99.9807	99.9403	200.079
9.215	99.981	99.9402	200.079
9.2175	99.9813	99.9402	200.079
9.22	99.9816	99.9401	200.078
9.2225	99.9819	99.9401	200.078
9.225	99.9822	99.94	200.078
9.2275	99.9825	99.94	200.078
9.23	99.9827	99.9399	200.077
9.2325	99.983	99.9399	200.077
9.235	99.9833	99.9399	200.077
9.2375	99.9836	99.9398	200.077
9.24	99.9839	99.9398	200.076
9.2425	99.9842	99.9397	200.076
9.245	99.9845	99.9397	200.076
9.2475	99.9848	99.9397	200.076
9.25	99.985	99.9396	200.075
9.2525	99.9853	99.9396	200.075
9.255	99.9856	99.9396	200.075
9.2575	99.9859	99.9395	200.075
9.26	99.9862	99.9395	200.074
9.2625	99.9864	99.9394	200.074
9.265	99.9867	99.9394	200.074
9.2675	99.987	99.9394	200.074
9.27	99.9873	99.9393	200.073
9.2725	99.9875	99.9393	200.073
9.275	99.9878	99.9393	200.073
9.2775	99.9881	99.9393	200.073
9.28	99.9884	99.9392	200.072
9.2825	99.9886	99.9392	200.072
9.285	99.9889	99.9392	200.072
9.2875	99.9892	99.9391	200.072
9.29	99.9894	99.9391	200.071
9.2925	99.9897	99.9391	200.071
9.295	99.99	99.9391	200.071
9.2975	99.9902	99.939	200.071
9.3	99.9905	99.939	200.07
9.3025	99.9908	99.939	200.07
9.305	99.991	99.939	200.07
9.3075	99.9913	99.9389	200.07
9.31	99.9916	99.9389	200.07
9.3125	99.9918	99.9389	200.069
9.315	99.9921	99.9389	200.069
9.3175	99.9923	99.9389	200.069
9.32	99.9926	99.9388	200.069
9.3225	99.9928	99.9388	200.068
9.325	99.9931	99.9388	200.068
9.3275	99.9934	99.9388	200.068
9.33	99.9936	99.9388	200.068
9.3325	99.9939	99.9388	200.067
9.335	99.9941	99.9387	200.067
9.3375	99.9944	99.9387	200.067
9.34	99.9946	99.9387	200.067
9.3425	99.9949	99.9387	200.066
9.345	99.9951	99.9387	200.066
9.3475	99.9954	99.9387	200.066
9.35	99.9956	99.9387	200.066
9.3525	99.9959	99.9387	200.065
9.355	99.9961	99.9386	200.065
9.3575	99.9963	99.9386	200.065
9.36	99.9966	99.9386	200.065
9.3625	99.9968	99.9386	200.065
9.365	99.9971	99.9386	200.064
9.3675	99.9973	99.9386	200.064
9.37	99.9976	99.9386	200.064
9.3725	99.9978	99.9386	200.064
9.375	99.998	99.9386	200.063
9.3775	99.9983	99.9386	200.063
9.38	99.9985	99.9386	200.063
9.3825	99.9987	99.9386	200.063
9.385	99.999	99.9386	200.062
9.3875	99.9992	99.9386	200.062
9.39	99.9994	99.9386	200.062
9.3925	99.9997	99.9386	200.062
9.395	99.9999	99.9386	200.062
9.3975	100	99.9386	200.061
9.4	100	99.9386	200.061
9.4025	100.001	99.9386	200.061
9.405	100.001	99.9386	200.061
9.4075	100.001	99.9386	200.06
9.41	100.001	99.9386	200.06
9.4125	100.001	99.9386	200.06
9.415	100.002	99.9386	200.06
9.4175	100.002	99.9386	200.059
9.42	100.002	99.9386	200.059
9.4225	100.002	99.9386	200.059
9.425	100.003	99.9386	200.059
9.4275	100.003	99.9386	200.059
9.43	100.003	99.9386	200.058
9.4325	100.003	99.9386	200.058
9.435	100.003	99.9386	200.058
9.4375	100.004	99.9386	200.058
9.44	100.004	99.9387	200.057
9.4425	100.004	99.9387	200.057
9.445	100.004	99.9387	200.057
9.4475	100.005	99.9387	200.057
9.45	100.005	99.9387	200.057
9.4525	100.005	99.9387	200.056
9.455	100.005	99.9387	200.056
9.4575	100.005	99.9387	200.056
9.46	100.006	99.9388	200.056
9.4625	100.006	99.9388	200.055
9.465	100.006	99.9388	200.055
9.4675	100.006	99.9388	200.055
9.47	100.006	99.9388	200.055
9.4725	100.007	99.9388	200.055
9.475	100.007	99.9388	200.054
9.4775	100.007	99.9389	200.054
9.48	100.007	99.9389	200.054
9.4825	100.007	99.9389	200.054
9.485	100.008	99.9389	200.053
9.4875	100.008	99.9389	200.053
9.49	100.008	99.939	200.053
9.4925	100.008	99.939	200.053
9.495	100.008	99.939	200.053
9.4975	100.009	99.939	200.052
9.5	100.009	99.939	200.052
9.5025	100.009	99.9391	200.052
9.505	100.009	99.9391	200.052
9.5075	100.009	99.9391	200.051
9.51	100.01	99.9391	200.051
9.5125	100.01	99.9392	200.051
9.515	100.01	99.9392	200.051
9.5175	100.01	99.9392	200.051
9.52	100.01	99.9392	200.05
9.5225	100.011	99.9393	200.05
9.525	100.011	99.9393	200.05
9.5275	100.011	99.9393	200.05
9.53	100.011	99.9393	200.05
9.5325	100.011	99.9394	200.049
9.535	100.012	99.9394	200.049
9.5375	100.012	99.9394	200.049
9.54	100.012	99.9395	200.049
9.5425	100.012	99.9395	200.048
9.545	100.012	99.9395	200.048
9.5475	100.012	99.9395	200.048
9.55	100.013	99.9396	200.048
9.5525	100.013	99.9396	200.048
9.555	100.013	99.9396	200.047
9.5575	100.013	99.9397	200.047
9.56	100.013	99.9397	200.047
9.5625	100.013	99.9397	200.047
9.565	100.014	99.9398	200.047
9.5675	100.014	99.9398	200.046
9.57	100.014	99.9398	200.046
9.5725	100.014	99.9399	200.046
9.575	100.014	99.9399	200.046
9.5775	100.015	99.94	200.046
9.58	100.015	99.94	200.045
9.5825	100.015	99.94	200.045
9.585	100.015	99.9401	200.045
9.5875	100.015	99.9401	200.045
9.59	100.015	99.9401	200.044
9.5925	100.016	99.9402	200.044
9.595	100.016	99.9402	200.044
9.5975	100.016	99.9403	200.044
9.6	100.016	99.9403	200.044
9.6025	100.016	99.9403	200.043
9.605	100.016	99.9404	200.043
9.6075	100.017	99.9404	200.043
9.61	100.017	99.9405	200.043
9.6125	100.017	99.9405	200.043
9.615	100.017	99.9405	200.042
9.6175	100.017	99.9406	200.042
9.62	100.017	99.9406	200.042
9.6225	100.017	99.9407	200.042
9.625	100.018	99.9407	200.042
9.6275	100.018	99.9408	200.041
9.63	100.018	99.9408	200.041
9.6325	100.018	99.9408	200.041
9.635	100.018	99.9409	200.041
9.6375	100.018	99.9409	200.041
9.64	100.019	99.941	200.04
9.6425	100.019	99.941	200.04
9.645	100.019	99.9411	200.04
9.6475	100.019	99.9411	200.04
9.65	100.019	99.9412	200.04
9.6525	100.019	99.9412	200.039
9.655	100.019	99.9413	200.039
9.6575	100.02	99.9413	200.039
9.66	100.02	99.9414	200.039
9.6625	100.02	99.9414	200.039
9.665	100.02	99.9415	200.039
9.6675	100.02	99.9415	200.038
9.67	100.02	99.9416	200.038
9.6725	100.02	99.9416	200.038
9.675	100.021	99.9417	200.038
9.6775	100.021	99.9417	200.038
9.68	100.021	99.9418	200.037
9.6825	100.021	99.9418	200.037
9.685	100.021	99.9419	200.037
9.6875	100.021	99.9419	200.037
9.69	100.021	99.942	200.037
9.6925	100.022	99.942	200.036
9.695	100.022	99.9421	200.036
9.6975	100.022	99.9421	200.036
9.7	100.022	99.9422	200.036
9.7025	100.022	99.9423	200.036
9.705	100.022	99.9423	200.035
9.7075	100.022	99.9424	200.035
9.71	100.023	99.9424	200.035
9.7125	100.023	99.9425	200.035
9.715	100.023	99.9425	200.035
9.7175	100.023	99.9426	200.035
9.72	100.023	99.9427	200.034
9.7225	100.023	99.9427	200.034
9.725	100.023	99.9428	200.034
9.7275	100.023	99.9428	200.034
9.73	100.024	99.9429	200.034
9.7325	100.024	99.9429	200.033
9.735	100.024	99.943	200.033
9.7375	100.024	99.9431	200.033
9.74	100.024	99.9431	200.033
9.7425	100.024	99.9432	200.033
9.745	100.024	99.9432	200.032
9.7475	100.024	99.9433	200.032
9.75	100.025	99.9434	200.032
9.7525	100.025	99.9434	200.032
9.755	100.025	99.9435	200.032
9.7575	100.025	99.9436	200.032
9.76	100.025	99.9436	200.031
9.7625	100.025	99.9437	200.031
9.765	100.025	99.9437	200.031
9.7675	100.025	99.9438	200.031
9.77	100.025	99.9439	200.031
9.7725	100.026	99.9439	200.03
9.775	100.026	99.944	200.03
9.7775	100.026	99.9441	200.03
9.78	100.026	99.9441	200.03
9.7825	100.026	99.9442	200.03
9.785	100.026	99.9443	200.03
9.7875	100.026	99.9443	200.029
9.79	100.026	99.9444	200.029
9.7925	100.026	99.9445	200.029
9.795	100.027	99.9445	200.029
9.7975	100.027	99.9446	200.029
9.8	100.027	99.9447	200.029
9.8025	100.027	99.9447	200.028
9.805	100.027	99.9448	200.028
9.8075	100.027	99.9449	200.028
9.81	100.027	99.9449	200.028
9.8125	100.027	99.945	200.028
9.815	100.027	99.9451	200.028
9.8175	100.028	99.9451	200.027
9.82	100.028	99.9452	200.027
9.8225	100.028	99.9453	200.027
9.825	100.028	99.9453	200.027
9.8275	100.028	99.9454	200.027
9.83	100.028	99.9455	200.026
9.8325	100.028	99.9455	200.026
9.835	100.028	99.9456	200.026
9.8375	100.028	99.9457	200.026
9.84	100.028	99.9458	200.026
9.8425	100.029	99.9458	200.026
9.845	100.029	99.9459	200.025
9.8475	100.029	99.946	200.025
9.85	100.029	99.946	200.025
9.8525	100.029	99.9461	200.025
9.855	100.029	99.9462	200.025
9.8575	100.029	99.9463	200.025
9.86	100.029	99.9463	200.024
9.8625	100.029	99.9464	200.024
9.865	100.029	99.9465	200.024
9.8675	100.029	99.9466	200.024
9.87	100.03	99.9466	200.024
9.8725	100.03	99.9467	200.024
9.875	100.03	99.9468	200.024
9.8775	100.03	99.9468	200.023
9.88	100.03	99.9469	200.023
9.8825	100.03	99.947	200.023
9.885	100.03	99.9471	200.023
9.8875	100.03	99.9471	200.023
9.89	100.03	99.9472	200.023
9.8925	100.03	99.9473	200.022
9.895	100.03	99.9474	200.022
9.8975	100.03	99.9475	200.022
9.9	100.031	99.9475	200.022
9.9025	100.031	99.9476	200.022
9.905	100.031	99.9477	200.022
9.9075	100.031	99.9478	200.021
9.91	100.031	99.9478	200.021
9.9125	100.031	99.9479	200.021
9.915	100.031	99.948	200.021
9.9175	100.031	99.9481	200.021
9.92	100.031	99.9481	200.021
9.9225	100.031	99.9482	200.02
9.925	100.031	99.9483	200.02
9.9275	100.031	99.9484	200.02
9.93	100.032	99.9485	200.02
9.9325	100.032	99.9485	200.02
9.935	100.032	99.9486	200.02
9.9375	100.032	99.9487	200.02
9.94	100.032	99.9488	200.019
9.9425	100.032	99.9489	200.019
9.945	100.032	99.9489	200.019
9.9475	100.032	99.949	200.019
9.95	100.032	99.9491	200.019
9.9525	100.032	99.9492	200.019
9.955	100.032	99.9493	200.019
9.9575	100.032	99.9493	200.018
9.96	100.032	99.9494	200.018
9.9625	100.032	99.9495	200.018
9.965	100.033	99.9496	200.018
9.9675	100.033	99.9497	200.018
9.97	100.033	99.9497	200.018
9.9725	100.033	99.9498	200.017
9.975	100.033	99.9499	200.017
9.9775	100.033	99.95	200.017
9.98	100.033	99.9501	200.017
9.9825	100.033	99.9502	200.017
9.985	100.033	99.9502	200.017
9.9875	100.033	99.9503	200.017
9.99	100.033	99.9504	200.016
9.9925	100.033	99.9505	200.016
9.995	100.033	99.9506	200.016
9.9975	100.033	99.9506	200.016
10	100.033	99.9507	200.016
10.0025	100.033	99.9508	200.016
10.005	100.034	99.9509	200.016
10.0075	100.034	99.951	200.015
10.01	100.034	99.9511	200.015
10.0125	100.034	99.9512	200.015
10.015	100.034	99.9512	200.015
10.0175	100.034	99.9513	200.015
10.02	100.034	99.9514	200.015
10.0225	100.034	99.9515	200.015
10.025	100.034	99.9516	200.014
10.0275	100.034	99.9517	200.014
10.03	100.034	99.9517	200.014
10.0325	100.034	99.9518	200.014
10.035	100.034	99.9519	200.014
10.0375	100.034	99.952	200.014
10.04	100.034	99.9521	200.014
10.0425	100.034	99.9522	200.013
10.045	100.034	99.9523	200.013
10.0475	100.034	99.9523	200.013
10.05	100.034	99.9524	200.013
10.0525	100.035	99.9525	200.013
10.055	100.035	99.9526	200.013
10.0575	100.035	99.9527	200.013
10.06	100.035	99.9528	200.013
10.0625	100.035	99.9529	200.012
10.065	100.035	99.9529	200.012
10.0675	100.035	99.953	200.012
10.07	100.035	99.9531	200.012
10.0725	100.035	99.9532	200.012
10.075	100.035	99.9533	200.012
10.0775	100.035	99.9534	200.012
10.08	100.035	99.9535	200.011
10.0825	100.035	99.9536	200.011
10.085	100.035	99.9536	200.011
10.0875	100.035	99.9537	200.011
10.09	100.035	99.9538	200.011
10.0925	100.035	99.9539	200.011
10.095	100.035	99.954	200.011
10.0975	100.035	99.9541	200.011
10.1	100.035	99.9542	200.01
10.1025	100.035	99.9543	200.01
10.105	100.035	99.9544	200.01
10.1075	100.035	99.9544	200.01
10.11	100.036	99.9545	200.01
10.1125	100.036	99.9546	200.01
10.115	100.036	99.9547	200.01
10.1175	100.036	99.9548	200.01
10.12	100.036	99.9549	200.009
10.1225	100.036	99.955	200.009
10.125	100.036	99.9551	200.009
10.1275	100.036	99.9552	200.009
10.13	100.036	99.9552	200.009
10.1325	100.036	99.9553	200.009
10.135	100.036	99.9554	200.009
10.1375	100.036	99.9555	200.009
10.14	100.036	99.9556	200.008
10.1425	100.036	99.9557	200.008
10.145	100.036	99.9558	200.008
10.1475	100.036	99.9559	200.008
10.15	100.036	99.956	200.008
10.1525	100.036	99.9561	200.008
10.155	100.036	99.9561	200.008
10.1575	100.036	99.9562	200.008
10.16	100.036	99.9563	200.007
10.1625	100.036	99.9564	200.007
10.165	100.036	99.9565	200.007
10.1675	100.036	99.9566	200.007
10.17	100.036	99.9567	200.007
10.1725	100.036	99.9568	200.007
10.175	100.036	99.9569	200.007
10.1775	100.036	99.957	200.007
10.18	100.036	99.957	200.007
10.1825	100.036	99.9571	200.006
10.185	100.036	99.9572	200.006
10.1875	100.036	99.9573	200.006
10.19	100.036	99.9574	200.006
10.1925	100.037	99.9575	200.006
10.195	100.037	99.9576	200.006
10.1975	100.037	99.9577	200.006
10.2	100.037	99.9578	200.006
10.2025	100.037	99.9579	200.006
10.205	100.037	99.958	200.005
10.2075	100.037	99.9581	200.005
10.21	100.037	99.9581	200.005
10.2125	100.037	99.9582	200.005
10.215	100.037	99.9583	200.005
10.2175	100.037	99.9584	200.005
10.22	100.037	99.9585	200.005
10.2225	100.037	99.9586	200.005
10.225	100.037	99.9587	200.005
10.2275	100.037	99.9588	200.004
10.23	100.037	99.9589	200.004
10.2325	100.037	99.959	200.004
10.235	100.037	99.9591	200.004
10.2375	100.037	99.9592	200.004
10.24	100.037	99.9592	200.004
10.2425	100.037	99.9593	200.004
10.245	100.037	99.9594	200.004
10.2475	100.037	99.9595	200.004
10.25	100.037	99.9596	200.003
10.2525	100.037	99.9597	200.003
10.255	100.037	99.9598	200.003
10.2575	100.037	99.9599	200.003
10.26	100.037	99.96	200.003
10.2625	100.037	99.9601	200.003
10.265	100.037	99.9602	200.003
10.2675	100.037	99.9603	200.003
10.27	100.037	99.9604	200.003
10.2725	100.037	99.9604	200.003
10.275	100.037	99.9605	200.002
10.2775	100.037	99.9606	200.002
10.28	100.037	99.9607	200.002
10.2825	100.037	99.9608	200.002
10.285	100.037	99.9609	200.002
10.2875	100.037	99.961	200.002
10.29	100.037	99.9611	200.002
10.2925	100.037	99.9612	200.002
10.295	100.037	99.9613	200.002
10.2975	100.037	99.9614	200.002
10.3	100.037	99.9615	200.001
10.3025	100.037	99.9616	200.001
10.305	100.037	99.9616	200.001
10.3075	100.037	99.9617	200.001
10.31	100.037	99.9618	200.001
10.3125	100.037	99.9619	200.001
10.315	100.037	99.962	200.001
10.3175	100.037	99.9621	200.001
10.32	100.037	99.9622	200.001
10.3225	100.037	99.9623	200.001
10.325	100.037	99.9624	200
10.3275	100.037	99.9625	200
10.33	100.037	99.9626	200
10.3325	100.037	99.9627	200
10.335	100.037	99.9628	200
10.3375	100.037	99.9629	200
10.34	100.037	99.9629	200
10.3425	100.037	99.963	200
10.345	100.037	99.9631	200
10.3475	100.037	99.9632	200
10.35	100.037	99.9633	200
10.3525	100.037	99.9634	199.999
10.355	100.037	99.9635	199.999
10.3575	100.037	99.9636	199.999
10.36	100.037	99.9637	199.999
10.3625	100.037	99.9638	199.999
10.365	100.037	99.9639	199.999
10.3675	100.037	99.964	199.999
10.37	100.037	99.9641	199.999
10.3725	100.037	99.9642	199.999
10.375	100.037	99.9642	199.999
10.3775	100.037	99.9643	199.999
10.38	100.037	99.9644	199.998
10.3825	100.037	99.9645	199.998
10.385	100.037	99.9646	199.998
10.3875	100.037	99.9647	199.998
10.39	100.037	99.9648	199.998
10.3925	100.037	99.9649	199.998
10.395	100.037	99.965	199.998
10.3975	100.037	99.9651	199.998
10.4	100.037	99.9652	199.998
10.4025	100.037	99.9653	199.998
10.405	100.037	99.9654	199.998
10.4075	100.037	99.9655	199.998
10.41	100.037	99.9655	199.997
10.4125	100.037	99.9656	199.997
10.415	100.037	99.9657	199.997
10.4175	100.037	99.9658	199.997
10.42	100.037	99.9659	199.997
10.4225	100.037	99.966	199.997
10.425	100.037	99.9661	199.997
10.4275	100.037	99.9662	199.997
10.43	100.037	99.9663	199.997
10.4325	100.037	99.9664	199.997
10.435	100.037	99.9665	199.997
10.4375	100.037	99.9666	199.997
10.44	100.037	99.9667	199.996
10.4425	100.037	99.9667	199.996
10.445	100.037	99.9668	199.996
10.4475	100.037	99.9669	199.996
10.45	100.037	99.967	199.996
10.4525	100.037	99.9671	199.996
10.455	100.037	99.9672	199.996
10.4575	100.037	99.9673	199.996
10.46	100.037	99.9674	199.996
10.4625	100.037	99.9675	199.996
10.465	100.037	99.9676	199.996
10.4675	100.037	99.9677	199.996
10.47	100.037	99.9678	199.996
10.4725	100.037	99.9678	199.995
10.475	100.037	99.9679	199.995
10.4775	100.037	99.968	199.995
10.48	100.037	99.9681	199.995
10.4825	100.037	99.9682	199.995
10.485	100.037	99.9683	199.995
10.4875	100.037	99.9684	199.995
10.49	100.037	99.9685	199.995
10.4925	100.037	99.9686	199.995
10.495	100.037	99.9687	199.995
10.4975	100.036	99.9688	199.995
10.5	100.036	99.9689	199.995
10.5025	100.036	99.9689	199.995
10.505	100.036	99.969	199.995
10.5075	100.036	99.9691	199.994
10.51	100.036	99.9692	199.994
10.5125	100.036	99.9693	199.994
10.515	100.036	99.9694	199.994
10.5175	100.036	99.9695	199.994
10.52	100.036	99.9696	199.994
10.5225	100.036	99.9697	199.994
10.525	100.036	99.9698	199.994
10.5275	100.036	99.9699	199.994
10.53	100.036	99.9699	199.994
10.5325	100.036	99.97	199.994
10.535	100.036	99.9701	199.994
10.5375	100.036	99.9702	199.994
10.54	100.036	99.9703	199.994
10.5425	100.036	99.9704	199.994
10.545	100.036	99.9705	199.993
10.5475	100.036	99.9706	199.993
10.55	100.036	99.9707	199.993
10.5525	100.036	99.9708	199.993
10.555	100.036	99.9708	199.993
10.5575	100.036	99.9709	199.993
10.56	100.036	99.971	199.993
10.5625	100.036	99.9711	199.993
10.565	100.036	99.9712	199.993
10.5675	100.036	99.9713	199.993
10.57	100.036	99.9714	199.993
10.5725	100.036	99.9715	199.993
10.575	100.036	99.9716	199.993
10.5775	100.036	99.9717	199.993
10.58	100.036	99.9717	199.993
10.5825	100.036	99.9718	199.993
10.585	100.036	99.9719	199.992
10.5875	100.036	99.972	199.992
10.59	100.036	99.9721	199.992
10.5925	100.036	99.9722	199.992
10.595	100.036	99.9723	199.992
10.5975	100.035	99.9724	199.992
10.6	100.035	99.9725	199.992
10.6025	100.035	99.9725	199.992
10.605	100.035	99.9726	199.992
10.6075	100.035	99.9727	199.992
10.61	100.035	99.9728	199.992
10.6125	100.035	99.9729	199.992
10.615	100.035	99.973	199.992
10.6175	100.035	99.9731	199.992
10.62	100.035	99.9732	199.992
10.6225	100.035	99.9732	199.992
10.625	100.035	99.9733	199.992
10.6275	100.035	99.9734	199.991
10.63	100.035	99.9735	199.991
10.6325	100.035	99.9736	199.991
10.635	100.035	99.9737	199.991
10.6375	100.035	99.9738	199.991
10.64	100.035	99.9739	199.991
10.6425	100.035	99.9739	199.991
10.645	100.035	99.974	199.991
10.6475	100.035	99.9741	199.991
10.65	100.035	99.9742	199.991
10.6525	100.035	99.9743	199.991
10.655	100.035	99.9744	199.991
10.6575	100.035	99.9745	199.991
10.66	100.035	99.9746	199.991
10.6625	100.035	99.9746	199.991
10.665	100.035	99.9747	199.991
10.6675	100.035	99.9748	199.991
10.67	100.035	99.9749	199.991
10.6725	100.035	99.975	199.99
10.675	100.034	99.9751	199.99
10.6775	100.034	99.9752	199.99
10.68	100.034	99.9752	199.99
10.6825	100.034	99.9753	199.99
10.685	100.034	99.9754	199.99
10.6875	100.034	99.9755	199.99
10.69	100.034	99.9756	199.99
10.6925	100.034	99.9757	199.99
10.695	100.034	99.9758	199.99
10.6975	100.034	99.9758	199.99
10.7	100.034	99.9759	199.99
10.7025	100.034	99.976	199.99
10.705	100.034	99.9761	199.99
10.7075	100.034	99.9762	199.99
10.71	100.034	99.9763	199.99
10.7125	100.034	99.9764	199.99
10.715	100.034	99.9764	199.99
10.7175	100.034	99.9765	199.99
10.72	100.034	99.9766	199.99
10.7225	100.034	99.9767	199.99
10.725	100.034	99.9768	199.989
10.7275	100.034	99.9769	199.989
10.73	100.034	99.9769	199.989
10.7325	100.034	99.977	199.989
10.735	100.034	99.9771	199.989
10.7375	100.034	99.9772	199.989
10.74	100.033	99.9773	199.989
10.7425	100.033	99.9774	199.989
10.745	100.033	99.9775	199.989
10.7475	100.033	99.9775	199.989
10.75	100.033	99.9776	199.989
10.7525	100.033	99.9777	199.989
10.755	100.033	99.9778	199.989
10.7575	100.033	99.9779	199.989
10.76	100.033	99.978	199.989
10.7625	100.033	99.978	199.989
10.765	100.033	99.9781	199.989
10.7675	100.033	99.9782	199.989
10.77	100.033	99.9783	199.989
10.7725	100.033	99.9784	199.989
10.775	100.033	99.9784	199.989
10.7775	100.033	99.9785	199.989
10.78	100.033	99.9786	199.989
10.7825	100.033	99.9787	199.989
10.785	100.033	99.9788	199.988
10.7875	100.033	99.9789	199.988
10.79	100.033	99.9789	199.988
10.7925	100.033	99.979	199.988
10.795	100.033	99.9791	199.988
10.7975	100.033	99.9792	199.988
10.8	100.032	99.9793	199.988
10.8025	100.032	99.9793	199.988
10.805	100.032	99.9794	199.988
10.8075	100.032	99.9795	199.988
10.81	100.032	99.9796	199.988
10.8125	100.032	99.9797	199.988
10.815	100.032	99.9797	199.988
10.8175	100.032	99.9798	199.988
10.82	100.032	99.9799	199.988
10.8225	100.032	99.98	199.988
10.825	100.032	99.9801	199.988
10.8275	100.032	99.9801	199.988
10.83	100.032	99.9802	199.988
10.8325	100.032	99.9803	199.988
10.835	100.032	99.9804	199.988
10.8375	100.032	99.9805	199.988
10.84	100.032	99.9805	199.988
10.8425	100.032	99.9806	199.988
10.845	100.032	99.9807	199.988
10.8475	100.032	99.9808	199.988
10.85	100.032	99.9809	199.988
10.8525	100.032	99.9809	199.988
10.855	100.031	99.981	199.988
10.8575	100.031	99.9811	199.987
10.86	100.031	99.9812	199.987
10.8625	100.031	99.9813	199.987
10.865	100.031	99.9813	199.987
10.8675	100.031	99.9814	199.987
10.87	100.031	99.9815	199.987
10.8725	100.031	99.9816	199.987
10.875	100.031	99.9816	199.987
10.8775	100.031	99.9817	199.987
10.88	100.031	99.9818	199.987
10.8825	100.031	99.9819	199.987
10.885	100.031	99.982	199.987
10.8875	100.031	99.982	199.987
10.89	100.031	99.9821	199.987
10.8925	100.031	99.9822	199.987
10.895	100.031	99.9823	199.987
10.8975	100.031	99.9823	199.987
10.9	100.031	99.9824	199.987
10.9025	100.031	99.9825	199.987
10.905	100.031	99.9826	199.987
10.9075	100.03	99.9826	199.987
10.91	100.03	99.9827	199.987
10.9125	100.03	99.9828	199.987
10.915	100.03	99.9829	199.987
10.9175	100.03	99.983	199.987
10.92	100.03	99.983	199.987
10.9225	100.03	99.9831	199.987
10.925	100.03	99.9832	199.987
10.9275	100.03	99.9833	199.987
10.93	100.03	99.9833	199.987
10.9325	100.03	99.9834	199.987
10.935	100.03	99.9835	199.987
10.9375	100.03	99.9836	199.987
10.94	100.03	99.9836	199.987
10.9425	100.03	99.9837	199.987
10.945	100.03	99.9838	199.987
10.9475	100.03	99.9839	199.986
10.95	100.03	99.9839	199.986
10.9525	100.03	99.984	199.986
10.955	100.03	99.9841	199.986
10.9575	100.029	99.9841	199.986
10.96	100.029	99.9842	199.986
10.9625	100.029	99.9843	199.986
10.965	100.029	99.9844	199.986
10.9675	100.029	99.9844	199.986
10.97	100.029	99.9845	199.986
10.9725	100.029	99.9846	199.986
10.975	100.029	99.9847	199.986
10.9775	100.029	99.9847	199.986
10.98	100.029	99.9848	199.986
10.9825	100.029	99.9849	199.986
10.985	100.029	99.9849	199.986
10.9875	100.029	99.985	199.986
10.99	100.029	99.9851	199.986
10.9925	100.029	99.9852	199.986
10.995	100.029	99.9852	199.986
10.9975	100.029	99.9853	199.986
11	100.029	99.9854	199.986
11.0025	100.029	99.9855	199.986
11.005	100.028	99.9855	199.986
11.0075	100.028	99.9856	199.986
11.01	100.028	99.9857	199.986
11.0125	100.028	99.9857	199.986
11.015	100.028	99.9858	199.986
11.0175	100.028	99.9859	199.986
11.02	100.028	99.9859	199.986
11.0225	100.028	99.986	199.986
11.025	100.028	99.9861	199.986
11.0275	100.028	99.9862	199.986
11.03	100.028	99.9862	199.986
11.0325	100.028	99.9863	199.986
11.035	100.028	99.9864	199.986
11.0375	100.028	99.9864	199.986
11.04	100.028	99.9865	199.986
11.0425	100.028	99.9866	199.986
11.045	100.028	99.9866	199.986
11.0475	100.028	99.9867	199.986
11.05	100.028	99.9868	199.986
11.0525	100.027	99.9869	199.986
11.055	100.027	99.9869	199.986
11.0575	100.027	99.987	199.986
11.06	100.027	99.9871	199.986
11.0625	100.027	99.9871	199.986
11.065	100.027	99.9872	199.986
11.0675	100.027	99.9873	199.986
11.07	100.027	99.9873	199.986
11.0725	100.027	99.9874	199.986
11.075	100.027	99.9875	199.986
11.0775	100.027	99.9875	199.986
11.08	100.027	99.9876	199.986
11.0825	100.027	99.9877	199.986
11.085	100.027	99.9877	199.985
11.0875	100.027	99.9878	199.985
11.09	100.027	99.9879	199.985
11.0925	100.027	99.9879	199.985
11.095	100.027	99.988	199.985
11.0975	100.026	99.9881	199.985
11.1	100.026	99.9881	199.985
11.1025	100.026	99.9882	199.985
11.105	100.026	99.9883	199.985
11.1075	100.026	99.9883	199.985
11.11	100.026	99.9884	199.985
11.1125	100.026	99.9885	199.985
11.115	100.026	99.9885	199.985
11.1175	100.026	99.9886	199.985
11.12	100.026	99.9887	199.985
11.1225	100.026	99.9887	199.985
11.125	100.026	99.9888	199.985
11.1275	100.026	99.9888	199.985
11.13	100.026	99.9889	199.985
11.1325	100.026	99.989	199.985
11.135	100.026	99.989	199.985
11.1375	100.026	99.9891	199.985
11.14	100.026	99.9892	199.985
11.1425	100.026	99.9892	199.985
11.145	100.025	99.9893	199.985
11.1475	100.025	99.9894	199.985
11.15	100.025	99.9894	199.985
11.1525	100.025	99.9895	199.985
11.155	100.025	99.9896	199.985
11.1575	100.025	99.9896	199.985
11.16	100.025	99.9897	199.985
11.1625	100.025	99.9897	199.985
11.165	100.025	99.9898	199.985
11.1675	100.025	99.9899	199.985
11.17	100.025	99.9899	199.985
11.1725	100.025	99.99	199.985
11.175	100.025	99.9901	199.985
11.1775	100.025	99.9901	199.985
11.18	100.025	99.9902	199.985
11.1825	100.025	99.9902	199.985
11.185	100.025	99.9903	199.985
11.1875	100.025	99.9904	199.985
11.19	100.024	99.9904	199.985
11.1925	100.024	99.9905	199.985
11.195	100.024	99.9905	199.985
11.1975	100.024	99.9906	199.985
11.2	100.024	99.9907	199.985
11.2025	100.024	99.9907	199.985
11.205	100.024	99.9908	199.985
11.2075	100.024	99.9908	199.985
11.21	100.024	99.9909	199.985
11.2125	100.024	99.991	199.985
11.215	100.024	99.991	199.985
11.2175	100.024	99.9911	199.985
11.22	100.024	99.9911	199.985
11.2225	100.024	99.9912	199.985
11.225	100.024	99.9913	199.985
11.2275	100.024	99.9913	199.985
11.23	100.024	99.9914	199.985
11.2325	100.024	99.9914	199.985
11.235	100.023	99.9915	199.985
11.2375	100.023	99.9916	199.985
11.24	100.023	99.9916	199.985
11.2425	100.023	99.9917	199.985
11.245	100.023	99.9917	199.985
11.2475	100.023	99.9918	199.985
11.25	100.023	99.9918	199.985
11.2525	100.023	99.9919	199.985
11.255	100.023	99.992	199.985
11.2575	100.023	99.992	199.985
11.26	100.023	99.9921	199.985
11.2625	100.023	99.9921	199.985
11.265	100.023	99.9922	199.985
11.2675	100.023	99.9922	199.985
11.27	100.023	99.9923	199.985
11.2725	100.023	99.9924	199.985
11.275	100.023	99.9924	199.985
11.2775	100.022	99.9925	199.985
11.28	100.022	99.9925	199.985
11.2825	100.022	99.9926	199.985
11.285	100.022	99.9926	199.985
11.2875	100.022	99.9927	199.985
11.29	100.022	99.9928	199.985
11.2925	100.022	99.9928	199.985
11.295	100.022	99.9929	199.985
11.2975	100.022	99.9929	199.985
11.3	100.022	99.993	199.985
11.3025	100.022	99.993	199.985
11.305	100.022	99.9931	199.985
11.3075	100.022	99.9931	199.985
11.31	100.022	99.9932	199.985
11.3125	100.022	99.9932	199.985
11.315	100.022	99.9933	199.985
11.3175	100.022	99.9934	199.985
11.32	100.022	99.9934	199.985
11.3225	100.021	99.9935	199.985
11.325	100.021	99.9935	199.985
11.3275	100.021	99.9936	199.985
11.33	100.021	99.9936	199.985
11.3325	100.021	99.9937	199.985
11.335	100.021	99.9937	199.985
11.3375	100.021	99.9938	199.985
11.34	100.021	99.9938	199.985
11.3425	100.021	99.9939	199.985
11.345	100.021	99.9939	199.985
11.3475	100.021	99.994	199.985
11.35	100.021	99.994	199.985
11.3525	100.021	99.9941	199.985
11.355	100.021	99.9942	199.985
11.3575	100.021	99.9942	199.985
11.36	100.021	99.9943	199.985
11.3625	100.021	99.9943	199.985
11.365	100.021	99.9944	199.985
11.3675	100.02	99.9944	199.985
11.37	100.02	99.9945	199.985
11.3725	100.02	99.9945	199.985
11.375	100.02	99.9946	199.985
11.3775	100.02	99.9946	199.985
11.38	100.02	99.9947	199.985
11.3825	100.02	99.9947	199.985
11.385	100.02	99.9948	199.985
11.3875	100.02	99.9948	199.985
11.39	100.02	99.9949	199.985
11.3925	100.02	99.9949	199.985
11.395	100.02	99.995	199.985
11.3975	100.02	99.995	199.985
11.4	100.02	99.9951	199.985
11.4025	100.02	99.9951	199.985
11.405	100.02	99.9952	199.985
11.4075	100.02	99.9952	199.985
11.41	100.02	99.9953	199.985
11.4125	100.019	99.9953	199.985
11.415	100.019	99.9954	199.985
11.4175	100.019	99.9954	199.985
11.42	100.019	99.9955	199.985
11.4225	100.019	99.9955	199.985
11.425	100.019	99.9955	199.985
11.4275	100.019	99.9956	199.985
11.43	100.019	99.9956	199.985
11.4325	100.019	99.9957	199.985
11.435	100.019	99.9957	199.985
11.4375	100.019	99.9958	199.985
11.44	100.019	99.9958	199.985
11.4425	100.019	99.9959	199.985
11.445	100.019	99.9959	199.985
11.4475	100.019	99.996	199.985
11.45	100.019	99.996	199.985
11.4525	100.019	99.9961	199.985
11.455	100.019	99.9961	199.985
11.4575	100.018	99.9962	199.985
11.46	100.018	99.9962	199.985
11.4625	100.018	99.9963	199.985
11.465	100.018	99.9963	199.985
11.4675	100.018	99.9963	199.985
11.47	100.018	99.9964	199.985
11.4725	100.018	99.9964	199.985
11.475	100.018	99.9965	199.985
11.4775	100.018	99.9965	199.985
11.48	100.018	99.9966	199.985
11.4825	100.018	99.9966	199.985
11.485	100.018	99.9967	199.985
11.4875	100.018	99.9967	199.985
11.49	100.018	99.9968	199.985
11.4925	100.018	99.9968	199.985
11.495	100.018	99.9968	199.986
11.4975	100.018	99.9969	199.986
11.5	100.018	99.9969	199.986
11.5025	100.017	99.997	199.986
11.505	100.017	99.997	199.986
11.5075	100.017	99.9971	199.986
11.51	100.017	99.9971	199.986
11.5125	100.017	99.9971	199.986
11.515	100.017	99.9972	199.986
11.5175	100.017	99.9972	199.986
11.52	100.017	99.9973	199.986
11.5225	100.017	99.9973	199.986
11.525	100.017	99.9974	199.986
11.5275	100.017	99.9974	199.986
11.53	100.017	99.9974	199.986
11.5325	100.017	99.9975	199.986
11.535	100.017	99.9975	199.986
11.5375	100.017	99.9976	199.986
11.54	100.017	99.9976	199.986
11.5425	100.017	99.9977	199.986
11.545	100.017	99.9977	199.986
11.5475	100.017	99.9977	199.986
11.55	100.016	99.9978	199.986
11.5525	100.016	99.9978	199.986
11.555	100.016	99.9979	199.986
11.5575	100.016	99.9979	199.986
11.56	100.016	99.9979	199.986
11.5625	100.016	99.998	199.986
11.565	100.016	99.998	199.986
11.5675	100.016	99.9981	199.986
11.57	100.016	99.9981	199.986
11.5725	100.016	99.9981	199.986
11.575	100.016	99.9982	199.986
11.5775	100.016	99.9982	199.986
11.58	100.016	99.9983	199.986
11.5825	100.016	99.9983	199.986
11.585	100.016	99.9983	199.986
11.5875	100.016	99.9984	199.986
11.59	100.016	99.9984	199.986
11.5925	100.016	99.9985	199.986
11.595	100.016	99.9985	199.986
11.5975	100.015	99.9985	199.986
11.6	100.015	99.9986	199.986
11.6025	100.015	99.9986	199.986
11.605	100.015	99.9987	199.986
11.6075	100.015	99.9987	199.986
11.61	100.015	99.9987	199.986
11.6125	100.015	99.9988	199.986
11.615	100.015	99.9988	199.986
11.6175	100.015	99.9988	199.986
11.62	100.015	99.9989	199.986
11.6225	100.015	99.9989	199.986
11.625	100.015	99.999	199.986
11.6275	100.015	99.999	199.986
11.63	100.015	99.999	199.986
11.6325	100.015	99.9991	199.986
11.635	100.015	99.9991	199.986
11.6375	100.015	99.9991	199.986
11.64	100.015	99.9992	199.986
11.6425	100.015	99.9992	199.986
11.645	100.014	99.9992	199.986
11.6475	100.014	99.9993	199.986
11.65	100.014	99.9993	199.986
11.6525	100.014	99.9994	199.986
11.655	100.014	99.9994	199.986
11.6575	100.014	99.9994	199.986
11.66	100.014	99.9995	199.986
11.6625	100.014	99.9995	199.986
11.665	100.014	99.9995	199.986
11.6675	100.014	99.9996	199.986
11.67	100.014	99.9996	199.986
11.6725	100.014	99.9996	199.986
11.675	100.014	99.9997	199.986
11.6775	100.014	99.9997	199.986
11.68	100.014	99.9997	199.986
11.6825	100.014	99.9998	199.987
11.685	100.014	99.9998	199.987
11.6875	100.014	99.9998	199.987
11.69	100.014	99.9999	199.987
11.6925	100.014	99.9999	199.987
11.695	100.013	99.9999	199.987
11.6975	100.013	100	199.987
11.7	100.013	100	199.987
11.7025	100.013	100	199.987
11.705	100.013	100	199.987
11.7075	100.013	100	199.987
11.71	100.013	100	199.987
11.7125	100.013	100	199.987
11.715	100.013	100	199.987
11.7175	100.013	100	199.987
11.72	100.013	100	199.987
11.7225	100.013	100	199.987
11.725	100.013	100	199.987
11.7275	100.013	100	199.987
11.73	100.013	100	199.987
11.7325	100.013	100	199.987
11.735	100.013	100	199.987
11.7375	100.013	100	199.987
11.74	100.013	100.001	199.987
11.7425	100.013	100.001	199.987
11.745	100.012	100.001	199.987
11.7475	100.012	100.001	199.987
11.75	100.012	100.001	199.987
11.7525	100.012	100.001	199.987
11.755	100.012	100.001	199.987
11.7575	100.012	100.001	199.987
11.76	100.012	100.001	199.987
11.7625	100.012	100.001	199.987
11.765	100.012	100.001	199.987
11.7675	100.012	100.001	199.987
11.77	100.012	100.001	199.987
11.7725	100.012	100.001	199.987
11.775	100.012	100.001	199.987
11.7775	100.012	100.001	199.987
11.78	100.012	100.001	199.987
11.7825	100.012	100.001	199.987
11.785	100.012	100.001	199.987
11.7875	100.012	100.001	199.987
11.79	100.012	100.001	199.987
11.7925	100.012	100.001	199.987
11.795	100.012	100.001	199.987
11.7975	100.011	100.001	199.987
11.8	100.011	100.001	199.987
11.8025	100.011	100.001	199.987
11.805	100.011	100.001	199.987
11.8075	100.011	100.001	199.987
11.81	100.011	100.001	199.987
11.8125	100.011	100.001	199.987
11.815	100.011	100.001	199.987
11.8175	100.011	100.001	199.987
11.82	100.011	100.001	199.987
11.8225	100.011	100.002	199.988
11.825	100.011	100.002	199.988
11.8275	100.011	100.002	199.988
11.83	100.011	100.002	199.988
11.8325	100.011	100.002	199.988
11.835	100.011	100.002	199.988
11.8375	100.011	100.002	199.988
11.84	100.011	100.002	199.988
11.8425	100.011	100.002	199.988
11.845	100.011	100.002	199.988
11.8475	100.011	100.002	199.988
11.85	100.01	100.002	199.988
11.8525	100.01	100.002	199.988
11.855	100.01	100.002	199.988
11.8575	100.01	100.002	199.988
11.86	100.01	100.002	199.988
11.8625	100.01	100.002	199.988
11.865	100.01	100.002	199.988
11.8675	100.01	100.002	199.988
11.87	100.01	100.002	199.988
11.8725	100.01	100.002	199.988
11.875	100.01	100.002	199.988
11.8775	100.01	100.002	199.988
11.88	100.01	100.002	199.988
11.8825	100.01	100.002	199.988
11.885	100.01	100.002	199.988
11.8875	100.01	100.002	199.988
11.89	100.01	100.002	199.988
11.8925	100.01	100.002	199.988
11.895	100.01	100.002	199.988
11.8975	100.01	100.002	199.988
11.9	100.01	100.002	199.988
11.9025	100.01	100.002	199.988
11.905	100.009	100.002	199.988
11.9075	100.009	100.002	199.988
11.91	100.009	100.002	199.988
11.9125	100.009	100.002	199.988
11.915	100.009	100.002	199.988
11.9175	100.009	100.002	199.988
11.92	100.009	100.002	199.988
11.9225	100.009	100.003	199.988
11.925	100.009	100.003	199.988
11.9275	100.009	100.003	199.988
11.93	100.009	100.003	199.988
11.9325	100.009	100.003	199.988
11.935	100.009	100.003	199.988
11.9375	100.009	100.003	199.988
11.94	100.009	100.003	199.988
11.9425	100.009	100.003	199.988
11.945	100.009	100.003	199.989
11.9475	100.009	100.003	199.989
11.95	100.009	100.003	199.989
11.9525	100.009	100.003	199.989
11.955	100.009	100.003	199.989
11.9575	100.009	100.003	199.989
11.96	100.009	100.003	199.989
11.9625	100.008	100.003	199.989
11.965	100.008	100.003	199.989
11.9675	100.008	100.003	199.989
11.97	100.008	100.003	199.989
11.9725	100.008	100.003	199.989
11.975	100.008	100.003	199.989
11.9775	100.008	100.003	199.989
11.98	100.008	100.003	199.989
11.9825	100.008	100.003	199.989
11.985	100.008	100.003	199.989
11.9875	100.008	100.003	199.989
11.99	100.008	100.003	199.989
11.9925	100.008	100.003	199.989
11.995	100.008	100.003	199.989
11.9975	100.008	100.003	199.989
12	100.008	100.003	199.989
12.0025	100.008	100.003	199.989
12.005	100.008	100.003	199.989
12.0075	100.008	100.003	199.989
12.01	100.008	100.003	199.989
12.0125	100.008	100.003	199.989
12.015	100.008	100.003	199.989
12.0175	100.008	100.003	199.989
12.02	100.008	100.003	199.989
12.0225	100.007	100.003	199.989
12.025	100.007	100.003	199.989
12.0275	100.007	100.003	199.989
12.03	100.007	100.003	199.989
12.0325	100.007	100.003	199.989
12.035	100.007	100.003	199.989
12.0375	100.007	100.003	199.989
12.04	100.007	100.003	199.989
12.0425	100.007	100.003	199.989
12.045	100.007	100.004	199.989
12.0475	100.007	100.004	199.989
12.05	100.007	100.004	199.989
12.0525	100.007	100.004	199.989
12.055	100.007	100.004	199.989
12.0575	100.007	100.004	199.989
12.06	100.007	100.004	199.99
12.0625	100.007	100.004	199.99
12.065	100.007	100.004	199.99
12.0675	100.007	100.004	199.99
12.07	100.007	100.004	199.99
12.0725	100.007	100.004	199.99
12.075	100.007	100.004	199.99
12.0775	100.007	100.004	199.99
12.08	100.007	100.004	199.99
12.0825	100.007	100.004	199.99
12.085	100.006	100.004	199.99
12.0875	100.006	100.004	199.99
12.09	100.006	100.004	199.99
12.0925	100.006	100.004	199.99
12.095	100.006	100.004	199.99
12.0975	100.006	100.004	199.99
12.1	100.006	100.004	199.99
12.1025	100.006	100.004	199.99
12.105	100.006	100.004	199.99
12.1075	100.006	100.004	199.99
12.11	100.006	100.004	199.99
12.1125	100.006	100.004	199.99
12.115	100.006	100.004	199.99
12.1175	100.006	100.004	199.99
12.12	100.006	100.004	199.99
12.1225	100.006	100.004	199.99
12.125	100.006	100.004	199.99
12.1275	100.006	100.004	199.99
12.13	100.006	100.004	199.99
12.1325	100.006	100.004	199.99
12.135	100.006	100.004	199.99
12.1375	100.006	100.004	199.99
12.14	100.006	100.004	199.99
12.1425	100.006	100.004	199.99
12.145	100.006	100.004	199.99
12.1475	100.006	100.004	199.99
12.15	100.006	100.004	199.99
12.1525	100.005	100.004	199.99
12.155	100.005	100.004	199.99
12.1575	100.005	100.004	199.99
12.16	100.005	100.004	199.99
12.1625	100.005	100.004	199.99
12.165	100.005	100.004	199.99
12.1675	100.005	100.004	199.99
12.17	100.005	100.004	199.99
12.1725	100.005	100.004	199.991
12.175	100.005	100.004	199.991
12.1775	100.005	100.004	199.991
12.18	100.005	100.004	199.991
12.1825	100.005	100.004	199.991
12.185	100.005	100.004	199.991
12.1875	100.005	100.004	199.991
12.19	100.005	100.004	199.991
12.1925	100.005	100.004	199.991
12.195	100.005	100.004	199.991
12.1975	100.005	100.004	199.991
12.2	100.005	100.004	199.991
12.2025	100.005	100.004	199.991
12.205	100.005	100.004	199.991
12.2075	100.005	100.004	199.991
12.21	100.005	100.004	199.991
12.2125	100.005	100.004	199.991
12.215	100.005	100.004	199.991
12.2175	100.005	100.005	199.991
12.22	100.005	100.005	199.991
12.2225	100.005	100.005	199.991
12.225	100.004	100.005	199.991
12.2275	100.004	100.005	199.991
12.23	100.004	100.005	199.991
12.2325	100.004	100.005	199.991
12.235	100.004	100.005	199.991
12.2375	100.004	100.005	199.991
12.24	100.004	100.005	199.991
12.2425	100.004	100.005	199.991
12.245	100.004	100.005	199.991
12.2475	100.004	100.005	199.991
12.25	100.004	100.005	199.991
12.2525	100.004	100.005	199.991
12.255	100.004	100.005	199.991
12.2575	100.004	100.005	199.991
12.26	100.004	100.005	199.991
12.2625	100.004	100.005	199.991
12.265	100.004	100.005	199.991
12.2675	100.004	100.005	199.991
12.27	100.004	100.005	199.991
12.2725	100.004	100.005	199.991
12.275	100.004	100.005	199.991
12.2775	100.004	100.005	199.991
12.28	100.004	100.005	199.991
12.2825	100.004	100.005	199.992
12.285	100.004	100.005	199.992
12.2875	100.004	100.005	199.992
12.29	100.004	100.005	199.992
12.2925	100.004	100.005	199.992
12.295	100.004	100.005	199.992
12.2975	100.004	100.005	199.992
12.3	100.003	100.005	199.992
12.3025	100.003	100.005	199.992
12.305	100.003	100.005	199.992
12.3075	100.003	100.005	199.992
12.31	100.003	100.005	199.992
12.3125	100.003	100.005	199.992
12.315	100.003	100.005	199.992
12.3175	100.003	100.005	199.992
12.32	100.003	100.005	199.992
12.3225	100.003	100.005	199.992
12.325	100.003	100.005	199.992
12.3275	100.003	100.005	199.992
12.33	100.003	100.005	199.992
12.3325	100.003	100.005	199.992
12.335	100.003	100.005	199.992
12.3375	100.003	100.005	199.992
12.34	100.003	100.005	199.992
12.3425	100.003	100.005	199.992
12.345	100.003	100.005	199.992
12.3475	100.003	100.005	199.992
12.35	100.003	100.005	199.992
12.3525	100.003	100.005	199.992
12.355	100.003	100.005	199.992
12.3575	100.003	100.005	199.992
12.36	100.003	100.005	199.992
12.3625	100.003	100.005	199.992
12.365	100.003	100.005	199.992
12.3675	100.003	100.005	199.992
12.37	100.003	100.005	199.992
12.3725	100.003	100.005	199.992
12.375	100.003	100.005	199.992
12.3775	100.003	100.005	199.992
12.38	100.003	100.005	199.992
12.3825	100.003	100.005	199.992
12.385	100.002	100.005	199.992
12.3875	100.002	100.005	199.992
12.39	100.002	100.005	199.992
12.3925	100.002	100.005	199.992
12.395	100.002	100.005	199.993
12.3975	100.002	100.005	199.993
12.4	100.002	100.005	199.993
12.4025	100.002	100.005	199.993
12.405	100.002	100.005	199.993
12.4075	100.002	100.005	199.993
12.41	100.002	100.005	199.993
12.4125	100.002	100.005	199.993
12.415	100.002	100.005	199.993
12.4175	100.002	100.005	199.993
12.42	100.002	100.005	199.993
12.4225	100.002	100.005	199.993
12.425	100.002	100.005	199.993
12.4275	100.002	100.005	199.993
12.43	100.002	100.005	199.993
12.4325	100.002	100.005	199.993
12.435	100.002	100.005	199.993
12.4375	100.002	100.005	199.993
12.44	100.002	100.005	199.993
12.4425	100.002	100.005	199.993
12.445	100.002	100.005	199.993
12.4475	100.002	100.005	199.993
12.45	100.002	100.005	199.993
12.4525	100.002	100.005	199.993
12.455	100.002	100.005	199.993
12.4575	100.002	100.005	199.993
12.46	100.002	100.005	199.993
12.4625	100.002	100.005	199.993
12.465	100.002	100.005	199.993
12.4675	100.002	100.005	199.993
12.47	100.002	100.005	199.993
12.4725	100.002	100.005	199.993
12.475	100.002	100.005	199.993
12.4775	100.001	100.005	199.993
12.48	100.001	100.005	199.993
12.4825	100.001	100.005	199.993
12.485	100.001	100.005	199.993
12.4875	100.001	100.005	199.993
12.49	100.001	100.005	199.993
12.4925	100.001	100.005	199.993
12.495	100.001	100.005	199.993
12.4975	100.001	100.005	199.993
12.5	100.001	100.005	199.993
12.5025	100.001	100.005	199.993
12.505	100.001	100.005	199.993
12.5075	100.001	100.005	199.993
12.51	100.001	100.005	199.994
12.5125	100.001	100.005	199.994
12.515	100.001	100.005	199.994
12.5175	100.001	100.005	199.994
12.52	100.001	100.005	199.994
12.5225	100.001	100.005	199.994
12.525	100.001	100.005	199.994
12.5275	100.001	100.005	199.994
12.53	100.001	100.005	199.994
12.5325	100.001	100.005	199.994
12.535	100.001	100.005	199.994
12.5375	100.001	100.005	199.994
12.54	100.001	100.005	199.994
12.5425	100.001	100.005	199.994
12.545	100.001	100.005	199.994
12.5475	100.001	100.005	199.994
12.55	100.001	100.005	199.994
12.5525	100.001	100.005	199.994
12.555	100.001	100.005	199.994
12.5575	100.001	100.005	199.994
12.56	100.001	100.005	199.994
12.5625	100.001	100.005	199.994
12.565	100.001	100.005	199.994
12.5675	100.001	100.005	199.994
12.57	100.001	100.005	199.994
12.5725	100.001	100.005	199.994
12.575	100.001	100.005	199.994
12.5775	100.001	100.005	199.994
12.58	100.001	100.005	199.994
12.5825	100	100.005	199.994
12.585	100	100.005	199.994
12.5875	100	100.005	199.994
12.59	100	100.005	199.994
12.5925	100	100.005	199.994
12.595	100	100.005	199.994
12.5975	100	100.005	199.994
12.6	100	100.005	199.994
12.6025	100	100.005	199.994
12.605	100	100.005	199.994
12.6075	100	100.005	199.994
12.61	100	100.005	199.994
12.6125	100	100.005	199.994
12.615	100	100.005	199.994
12.6175	100	100.005	199.994
12.62	100	100.005	199.994
12.6225	100	100.005	199.994
12.625	100	100.005	199.994
12.6275	100	100.005	199.995
12.63	100	100.005	199.995
12.6325	100	100.005	199.995
12.635	100	100.005	199.995
12.6375	100	100.005	199.995
12.64	100	100.005	199.995
12.6425	100	100.005	199.995
12.645	100	100.005	199.995
12.6475	99.9999	100.005	199.995
12.65	99.9999	100.005	199.995
12.6525	99.9999	100.005	199.995
12.655	99.9999	100.005	199.995
12.6575	99.9999	100.005	199.995
12.66	99.9998	100.005	199.995
12.6625	99.9998	100.005	199.995
12.665	99.9998	100.005	199.995
12.6675	99.9998	100.005	199.995
12.67	99.9998	100.005	199.995
12.6725	99.9997	100.005	199.995
12.675	99.9997	100.005	199.995
12.6775	99.9997	100.005	199.995
12.68	99.9997	100.005	199.995
12.6825	99.9997	100.005	199.995
12.685	99.9997	100.005	199.995
12.6875	99.9996	100.005	199.995
12.69	99.9996	100.005	199.995
12.6925	99.9996	100.005	199.995
12.695	99.9996	100.005	199.995
12.6975	99.9996	100.005	199.995
12.7	99.9995	100.005	199.995
12.7025	99.9995	100.005	199.995
12.705	99.9995	100.005	199.995
12.7075	99.9995	100.005	199.995
12.71	99.9995	100.005	199.995
12.7125	99.9995	100.005	199.995
12.715	99.9994	100.005	199.995
12.7175	99.9994	100.005	199.995
12.72	99.9994	100.005	199.995
12.7225	99.9994	100.005	199.995
12.725	99.9994	100.005	199.995
12.7275	99.9993	100.005	199.995
12.73	99.9993	100.005	199.995
12.7325	99.9993	100.005	199.995
12.735	99.9993	100.005	199.995
12.7375	99.9993	100.005	199.995
12.74	99.9993	100.005	199.995
12.7425	99.9992	100.005	199.995
12.745	99.9992	100.005	199.995
12.7475	99.9992	100.005	199.995
12.75	99.9992	100.005	199.995
12.7525	99.9992	100.005	199.995
12.755	99.9992	100.005	199.996
12.7575	99.9991	100.005	199.996
12.76	99.9991	100.005	199.996
12.7625	99.9991	100.005	199.996
12.765	99.9991	100.005	199.996
12.7675	99.9991	100.005	199.996
12.77	99.9991	100.005	199.996
12.7725	99.999	100.005	199.996
12.775	99.999	100.005	199.996
12.7775	99.999	100.005	199.996
12.78	99.999	100.005	199.996
12.7825	99.999	100.005	199.996
12.785	99.999	100.005	199.996
12.7875	99.9989	100.005	199.996
12.79	99.9989	100.005	199.996
12.7925	99.9989	100.005	199.996
12.795	99.9989	100.005	199.996
12.7975	99.9989	100.005	199.996
12.8	99.9989	100.005	199.996
12.8025	99.9988	100.005	199.996
12.805	99.9988	100.005	199.996
12.8075	99.9988	100.005	199.996
12.81	99.9988	100.005	199.996
12.8125	99.9988	100.005	199.996
12.815	99.9988	100.005	199.996
12.8175	99.9988	100.005	199.996
12.82	99.9987	100.005	199.996
12.8225	99.9987	100.005	199.996
12.825	99.9987	100.005	199.996
12.8275	99.9987	100.005	199.996
12.83	99.9987	100.005	199.996
12.8325	99.9987	100.005	199.996
12.835	99.9986	100.005	199.996
12.8375	99.9986	100.005	199.996
12.84	99.9986	100.005	199.996
12.8425	99.9986	100.005	199.996
12.845	99.9986	100.005	199.996
12.8475	99.9986	100.005	199.996
12.85	99.9986	100.005	199.996
12.8525	99.9985	100.005	199.996
12.855	99.9985	100.005	199.996
12.8575	99.9985	100.005	199.996
12.86	99.9985	100.005	199.996
12.8625	99.9985	100.005	199.996
12.865	99.9985	100.005	199.996
12.8675	99.9985	100.005	199.996
12.87	99.9985	100.005	199.996
12.8725	99.9984	100.005	199.996
12.875	99.9984	100.005	199.996
12.8775	99.9984	100.005	199.996
12.88	99.9984	100.005	199.996
12.8825	99.9984	100.005	199.996
12.885	99.9984	100.005	199.996
12.8875	99.9984	100.005	199.996
12.89	99.9983	100.005	199.996
12.8925	99.9983	100.005	199.997
12.895	99.9983	100.005	199.997
12.8975	99.9983	100.005	199.997
12.9	99.9983	100.005	199.997
12.9025	99.9983	100.005	199.997
12.905	99.9983	100.005	199.997
12.9075	99.9983	100.005	199.997
12.91	99.9982	100.005	199.997
12.9125	99.9982	100.005	199.997
12.915	99.9982	100.005	199.997
12.9175	99.9982	100.005	199.997
12.92	99.9982	100.005	199.997
12.9225	99.9982	100.005	199.997
12.925	99.9982	100.005	199.997
12.9275	99.9982	100.005	199.997
12.93	99.9981	100.005	199.997
12.9325	99.9981	100.005	199.997
12.935	99.9981	100.005	199.997
12.9375	99.9981	100.005	199.997
12.94	99.9981	100.005	199.997
12.9425	99.9981	100.005	199.997
12.945	99.9981	100.005	199.997
12.9475	99.9981	100.005	199.997
12.95	99.998	100.005	199.997
12.9525	99.998	100.005	199.997
12.955	99.998	100.005	199.997
12.9575	99.998	100.005	199.997
12.96	99.998	100.005	199.997
12.9625	99.998	100.005	199.997
12.965	99.998	100.005	199.997
12.9675	99.998	100.005	199.997
12.97	99.998	100.005	199.997
12.9725	99.9979	100.005	199.997
12.975	99.9979	100.005	199.997
12.9775	99.9979	100.005	199.997
12.98	99.9979	100.005	199.997
12.9825	99.9979	100.005	199.997
12.985	99.9979	100.005	199.997
12.9875	99.9979	100.005	199.997
12.99	99.9979	100.005	199.997
12.9925	99.9979	100.005	199.997
12.995	99.9978	100.005	199.997
12.9975	99.9978	100.005	199.997
13	99.9978	100.005	199.997
13.0025	99.9978	100.005	199.997
13.005	99.9978	100.005	199.997
13.0075	99.9978	100.005	199.997
13.01	99.9978	100.005	199.997
13.0125	99.9978	100.005	199.997
13.015	99.9978	100.005	199.997
13.0175	99.9978	100.005	199.997
13.02	99.9977	100.005	199.997
13.0225	99.9977	100.005	199.997
13.025	99.9977	100.005	199.997
13.0275	99.9977	100.005	199.997
13.03	99.9977	100.005	199.997
13.0325	99.9977	100.005	199.997
13.035	99.9977	100.005	199.997
13.0375	99.9977	100.005	199.997
13.04	99.9977	100.005	199.997
13.0425	99.9977	100.005	199.997
13.045	99.9976	100.005	199.997
13.0475	99.9976	100.005	199.998
13.05	99.9976	100.005	199.998
13.0525	99.9976	100.005	199.998
13.055	99.9976	100.005	199.998
13.0575	99.9976	100.005	199.998
13.06	99.9976	100.005	199.998
13.0625	99.9976	100.005	199.998
13.065	99.9976	100.005	199.998
13.0675	99.9976	100.005	199.998
13.07	99.9976	100.005	199.998
13.0725	99.9975	100.005	199.998
13.075	99.9975	100.005	199.998
13.0775	99.9975	100.005	199.998
13.08	99.9975	100.005	199.998
13.0825	99.9975	100.005	199.998
13.085	99.9975	100.005	199.998
13.0875	99.9975	100.005	199.998
13.09	99.9975	100.005	199.998
13.0925	99.9975	100.005	199.998
13.095	99.9975	100.005	199.998
13.0975	99.9975	100.005	199.998
13.1	99.9975	100.005	199.998
13.1025	99.9974	100.005	199.998
13.105	99.9974	100.005	199.998
13.1075	99.9974	100.005	199.998
13.11	99.9974	100.005	199.998
13.1125	99.9974	100.005	199.998
13.115	99.9974	100.005	199.998
13.1175	99.9974	100.005	199.998
13.12	99.9974	100.005	199.998
13.1225	99.9974	100.005	199.998
13.125	99.9974	100.005	199.998
13.1275	99.9974	100.005	199.998
13.13	99.9974	100.005	199.998
13.1325	99.9974	100.005	199.998
13.135	99.9973	100.005	199.998
13.1375	99.9973	100.005	199.998
13.14	99.9973	100.005	199.998
13.1425	99.9973	100.005	199.998
13.145	99.9973	100.005	199.998
13.1475	99.9973	100.005	199.998
13.15	99.9973	100.005	199.998
13.1525	99.9973	100.005	199.998
13.155	99.9973	100.005	199.998
13.1575	99.9973	100.005	199.998
13.16	99.9973	100.005	199.998
13.1625	99.9973	100.005	199.998
13.165	99.9973	100.005	199.998
13.1675	99.9973	100.005	199.998
13.17	99.9972	100.005	199.998
13.1725	99.9972	100.005	199.998
13.175	99.9972	100.005	199.998
13.1775	99.9972	100.005	199.998
13.18	99.9972	100.005	199.998
13.1825	99.9972	100.005	199.998
13.185	99.9972	100.004	199.998
13.1875	99.9972	100.004	199.998
13.19	99.9972	100.004	199.998
13.1925	99.9972	100.004	199.998
13.195	99.9972	100.004	199.998
13.1975	99.9972	100.004	199.998
13.2	99.9972	100.004	199.998
13.2025	99.9972	100.004	199.998
13.205	99.9972	100.004	199.998
13.2075	99.9972	100.004	199.998
13.21	99.9971	100.004	199.998
13.2125	99.9971	100.004	199.998
13.215	99.9971	100.004	199.998
13.2175	99.9971	100.004	199.998
13.22	99.9971	100.004	199.998
13.2225	99.9971	100.004	199.998
13.225	99.9971	100.004	199.999
13.2275	99.9971	100.004	199.999
13.23	99.9971	100.004	199.999
13.2325	99.9971	100.004	199.999
13.235	99.9971	100.004	199.999
13.2375	99.9971	100.004	199.999
13.24	99.9971	100.004	199.999
13.2425	99.9971	100.004	199.999
13.245	99.9971	100.004	199.999
13.2475	99.9971	100.004	199.999
13.25	99.9971	100.004	199.999
13.2525	99.9971	100.004	199.999
13.255	99.997	100.004	199.999
13.2575	99.997	100.004	199.999
13.26	99.997	100.004	199.999
13.2625	99.997	100.004	199.999
13.265	99.997	100.004	199.999
13.2675	99.997	100.004	199.999
13.27	99.997	100.004	199.999
13.2725	99.997	100.004	199.999
13.275	99.997	100.004	199.999
13.2775	99.997	100.004	199.999
13.28	99.997	100.004	199.999
13.2825	99.997	100.004	199.999
13.285	99.997	100.004	199.999
13.2875	99.997	100.004	199.999
13.29	99.997	100.004	199.999
13.2925	99.997	100.004	199.999
13.295	99.997	100.004	199.999
13.2975	99.997	100.004	199.999
13.3	99.997	100.004	199.999
13.3025	99.997	100.004	199.999
13.305	99.997	100.004	199.999
13.3075	99.997	100.004	199.999
13.31	99.9969	100.004	199.999
13.3125	99.9969	100.004	199.999
13.315	99.9969	100.004	199.999
13.3175	99.9969	100.004	199.999
13.32	99.9969	100.004	199.999
13.3225	99.9969	100.004	199.999
13.325	99.9969	100.004	199.999
13.3275	99.9969	100.004	199.999
13.33	99.9969	100.004	199.999
13.3325	99.9969	100.004	199.999
13.335	99.9969	100.004	199.999
13.3375	99.9969	100.004	199.999
13.34	99.9969	100.004	199.999
13.3425	99.9969	100.004	199.999
13.345	99.9969	100.004	199.999
13.3475	99.9969	100.004	199.999
13.35	99.9969	100.004	199.999
13.3525	99.9969	100.004	199.999
13.355	99.9969	100.004	199.999
13.3575	99.9969	100.004	199.999
13.36	99.9969	100.004	199.999
13.3625	99.9969	100.004	199.999
13.365	99.9969	100.004	199.999
13.3675	99.9969	100.004	199.999
13.37	99.9969	100.004	199.999
13.3725	99.9969	100.004	199.999
13.375	99.9969	100.004	199.999
13.3775	99.9969	100.004	199.999
13.38	99.9969	100.004	199.999
13.3825	99.9968	100.004	199.999
13.385	99.9968	100.004	199.999
13.3875	99.9968	100.004	199.999
13.39	99.9968	100.004	199.999
13.3925	99.9968	100.004	199.999
13.395	99.9968	100.004	199.999
13.3975	99.9968	100.004	199.999
13.4	99.9968	100.004	199.999
13.4025	99.9968	100.004	199.999
13.405	99.9968	100.004	199.999
13.4075	99.9968	100.004	199.999
13.41	99.9968	100.004	199.999
13.4125	99.9968	100.004	199.999
13.415	99.9968	100.004	199.999
13.4175	99.9968	100.004	199.999
13.42	99.9968	100.004	199.999
13.4225	99.9968	100.004	199.999
13.425	99.9968	100.004	199.999
13.4275	99.9968	100.004	199.999
13.43	99.9968	100.004	199.999
13.4325	99.9968	100.004	199.999
13.435	99.9968	100.004	199.999
13.4375	99.9968	100.004	199.999
13.44	99.9968	100.004	199.999
13.4425	99.9968	100.004	199.999
13.445	99.9968	100.004	200
13.4475	99.9968	100.004	200
13.45	99.9968	100.004	200
13.4525	99.9968	100.004	200
13.455	99.9968	100.004	200
13.4575	99.9968	100.004	200
13.46	99.9968	100.004	200
13.4625	99.9968	100.004	200
13.465	99.9968	100.004	200
13.4675	99.9968	100.004	200
13.47	99.9968	100.004	200
13.4725	99.9968	100.004	200
13.475	99.9968	100.004	200
13.4775	99.9968	100.004	200
13.48	99.9968	100.004	200
13.4825	99.9968	100.004	200
13.485	99.9968	100.004	200
13.4875	99.9968	100.004	200
13.49	99.9968	100.004	200
13.4925	99.9968	100.004	200
13.495	99.9968	100.004	200
13.4975	99.9968	100.004	200
13.5	99.9968	100.004	200
13.5025	99.9968	100.004	200
13.505	99.9968	100.004	200
13.5075	99.9968	100.004	200
13.51	99.9968	100.003	200
13.5125	99.9968	100.003	200
13.515	99.9968	100.003	200
13.5175	99.9968	100.003	200
13.52	99.9968	100.003	200
13.5225	99.9968	100.003	200
13.525	99.9967	100.003	200
13.5275	99.9967	100.003	200
13.53	99.9967	100.003	200
13.5325	99.9967	100.003	200
13.535	99.9967	100.003	200
13.5375	99.9967	100.003	200
13.54	99.9967	100.003	200
13.5425	99.9967	100.003	200
13.545	99.9967	100.003	200
13.5475	99.9967	100.003	200
13.55	99.9967	100.003	200
13.5525	99.9967	100.003	200
13.555	99.9967	100.003	200
13.5575	99.9967	100.003	200
13.56	99.9967	100.003	200
13.5625	99.9967	100.003	200
13.565	99.9967	100.003	200
13.5675	99.9967	100.003	200
13.57	99.9967	100.003	200
13.5725	99.9967	100.003	200
13.575	99.9967	100.003	200
13.5775	99.9967	100.003	200
13.58	99.9967	100.003	200
13.5825	99.9967	100.003	200
13.585	99.9967	100.003	200
13.5875	99.9967	100.003	200
13.59	99.9967	100.003	200
13.5925	99.9967	100.003	200
13.595	99.9967	100.003	200
13.5975	99.9967	100.003	200
13.6	99.9967	100.003	200
13.6025	99.9967	100.003	200
13.605	99.9967	100.003	200
13.6075	99.9967	100.003	200
13.61	99.9967	100.003	200
13.6125	99.9967	100.003	200
13.615	99.9967	100.003	200
13.6175	99.9967	100.003	200
13.62	99.9967	100.003	200
13.6225	99.9967	100.003	200
13.625	99.9967	100.003	200
13.6275	99.9967	100.003	200
13.63	99.9967	100.003	200
13.6325	99.9967	100.003	200
13.635	99.9967	100.003	200
13.6375	99.9967	100.003	200
13.64	99.9967	100.003	200
13.6425	99.9967	100.003	200
13.645	99.9968	100.003	200
13.6475	99.9968	100.003	200
13.65	99.9968	100.003	200
13.6525	99.9968	100.003	200
13.655	99.9968	100.003	200
13.6575	99.9968	100.003	200
13.66	99.9968	100.003	200
13.6625	99.9968	100.003	200
13.665	99.9968	100.003	200
13.6675	99.9968	100.003	200
13.67	99.9968	100.003	200
13.6725	99.9968	100.003	200
13.675	99.9968	100.003	200
13.6775	99.9968	100.003	200
13.68	99.9968	100.003	200
13.6825	99.9968	100.003	200
13.685	99.9968	100.003	200
13.6875	99.9968	100.003	200
13.69	99.9968	100.003	200
13.6925	99.9968	100.003	200
13.695	99.9968	100.003	200
13.6975	99.9968	100.003	200
13.7	99.9968	100.003	200
13.7025	99.9968	100.003	200
13.705	99.9968	100.003	200
13.7075	99.9968	100.003	200
13.71	99.9968	100.003	200
13.7125	99.9968	100.003	200
13.715	99.9968	100.003	200
13.7175	99.9968	100.003	200
13.72	99.9968	100.003	200
13.7225	99.9968	100.003	200
13.725	99.9968	100.003	200
13.7275	99.9968	100.003	200
13.73	99.9968	100.003	200
13.7325	99.9968	100.003	200
13.735	99.9968	100.003	200
13.7375	99.9968	100.003	200
13.74	99.9968	100.003	200
13.7425	99.9968	100.003	200
13.745	99.9968	100.003	200
13.7475	99.9968	100.003	200
13.75	99.9968	100.003	200
13.7525	99.9968	100.003	200
13.755	99.9968	100.003	200
13.7575	99.9968	100.003	200
13.76	99.9968	100.003	200.001
13.7625	99.9968	100.003	200.001
13.765	99.9968	100.003	200.001
13.7675	99.9968	100.003	200.001
13.77	99.9968	100.003	200.001
13.7725	99.9968	100.003	200.001
13.775	99.9968	100.003	200.001
13.7775	99.9968	100.003	200.001
13.78	99.9968	100.003	200.001
13.7825	99.9968	100.003	200.001
13.785	99.9968	100.003	200.001
13.7875	99.9968	100.003	200.001
13.79	99.9968	100.003	200.001
13.7925	99.9968	100.003	200.001
13.795	99.9968	100.003	200.001
13.7975	99.9968	100.003	200.001
13.8	99.9968	100.003	200.001
13.8025	99.9968	100.003	200.001
13.805	99.9968	100.003	200.001
13.8075	99.9969	100.003	200.001
13.81	99.9969	100.003	200.001
13.8125	99.9969	100.003	200.001
13.815	99.9969	100.003	200.001
13.8175	99.9969	100.003	200.001
13.82	99.9969	100.002	200.001
13.8225	99.9969	100.002	200.001
13.825	99.9969	100.002	200.001
13.8275	99.9969	100.002	200.001
13.83	99.9969	100.002	200.001
13.8325	99.9969	100.002	200.001
13.835	99.9969	100.002	200.001
13.8375	99.9969	100.002	200.001
13.84	99.9969	100.002	200.001
13.8425	99.9969	100.002	200.001
13.845	99.9969	100.002	200.001
13.8475	99.9969	100.002	200.001
13.85	99.9969	100.002	200.001
13.8525	99.9969	100.002	200.001
13.855	99.9969	100.002	200.001
13.8575	99.9969	100.002	200.001
13.86	99.9969	100.002	200.001
13.8625	99.9969	100.002	200.001
13.865	99.9969	100.002	200.001
13.8675	99.9969	100.002	200.001
13.87	99.9969	100.002	200.001
13.8725	99.9969	100.002	200.001
13.875	99.9969	100.002	200.001
13.8775	99.9969	100.002	200.001
13.88	99.9969	100.002	200.001
13.8825	99.9969	100.002	200.001
13.885	99.9969	100.002	200.001
13.8875	99.9969	100.002	200.001
13.89	99.9969	100.002	200.001
13.8925	99.9969	100.002	200.001
13.895	99.9969	100.002	200.001
13.8975	99.9969	100.002	200.001
13.9	99.997	100.002	200.001
13.9025	99.997	100.002	200.001
13.905	99.997	100.002	200.001
13.9075	99.997	100.002	200.001
13.91	99.997	100.002	200.001
13.9125	99.997	100.002	200.001
13.915	99.997	100.002	200.001
13.9175	99.997	100.002	200.001
13.92	99.997	100.002	200.001
13.9225	99.997	100.002	200.001
13.925	99.997	100.002	200.001
13.9275	99.997	100.002	200.001
13.93	99.997	100.002	200.001
13.9325	99.997	100.002	200.001
13.935	99.997	100.002	200.001
13.9375	99.997	100.002	200.001
13.94	99.997	100.002	200.001
13.9425	99.997	100.002	200.001
13.945	99.997	100.002	200.001
13.9475	99.997	100.002	200.001
13.95	99.997	100.002	200.001
13.9525	99.997	100.002	200.001
13.955	99.997	100.002	200.001
13.9575	99.997	100.002	200.001
13.96	99.997	100.002	200.001
13.9625	99.997	100.002	200.001
13.965	99.997	100.002	200.001
13.9675	99.997	100.002	200.001
13.97	99.997	100.002	200.001
13.9725	99.997	100.002	200.001
13.975	99.997	100.002	200.001
13.9775	99.9971	100.002	200.001
13.98	99.9971	100.002	200.001
13.9825	99.9971	100.002	200.001
13.985	99.9971	100.002	200.001
13.9875	99.9971	100.002	200.001
13.99	99.9971	100.002	200.001
13.9925	99.9971	100.002	200.001
13.995	99.9971	100.002	200.001
13.9975	99.9971	100.002	200.001
14	99.9971	100.002	200.001
14.0025	99.9971	100.002	200.001
14.005	99.9971	100.002	200.001
14.0075	99.9971	100.002	200.001
14.01	99.9971	100.002	200.001
14.0125	99.9971	100.002	200.001
14.015	99.9971	100.002	200.001
14.0175	99.9971	100.002	200.001
14.02	99.9971	100.002	200.001
14.0225	99.9971	100.002	200.001
14.025	99.9971	100.002	200.001
14.0275	99.9971	100.002	200.001
14.03	99.9971	100.002	200.001
14.0325	99.9971	100.002	200.001
14.035	99.9971	100.002	200.001
14.0375	99.9971	100.002	200.001
14.04	99.9971	100.002	200.001
14.0425	99.9971	100.002	200.001
14.045	99.9972	100.002	200.001
14.0475	99.9972	100.002	200.001
14.05	99.9972	100.002	200.001
14.0525	99.9972	100.002	200.001
14.055	99.9972	100.002	200.001
14.0575	99.9972	100.002	200.001
14.06	99.9972	100.002	200.001
14.0625	99.9972	100.002	200.001
14.065	99.9972	100.002	200.001
14.0675	99.9972	100.002	200.001
14.07	99.9972	100.002	200.001
14.0725	99.9972	100.002	200.001
14.075	99.9972	100.002	200.001
14.0775	99.9972	100.002	200.001
14.08	99.9972	100.002	200.001
14.0825	99.9972	100.002	200.001
14.085	99.9972	100.002	200.001
14.0875	99.9972	100.002	200.001
14.09	99.9972	100.002	200.001
14.0925	99.9972	100.002	200.001
14.095	99.9972	100.002	200.001
14.0975	99.9972	100.002	200.001
14.1	99.9972	100.002	200.001
14.1025	99.9972	100.002	200.001
14.105	99.9972	100.002	200.001
14.1075	99.9973	100.002	200.001
14.11	99.9973	100.002	200.001
14.1125	99.9973	100.002	200.001
14.115	99.9973	100.002	200.001
14.1175	99.9973	100.002	200.001
14.12	99.9973	100.002	200.001
14.1225	99.9973	100.002	200.001
14.125	99.9973	100.002	200.001
14.1275	99.9973	100.002	200.001
14.13	99.9973	100.002	200.001
14.1325	99.9973	100.002	200.001
14.135	99.9973	100.002	200.001
14.1375	99.9973	100.002	200.001
14.14	99.9973	100.002	200.001
14.1425	99.9973	100.002	200.001
14.145	99.9973	100.002	200.001
14.1475	99.9973	100.002	200.001
14.15	99.9973	100.002	200.001
14.1525	99.9973	100.002	200.001
14.155	99.9973	100.002	200.001
14.1575	99.9973	100.002	200.001
14.16	99.9973	100.002	200.001
14.1625	99.9973	100.001	200.001
14.165	99.9973	100.001	200.001
14.1675	99.9974	100.001	200.001
14.17	99.9974	100.001	200.001
14.1725	99.9974	100.001	200.001
14.175	99.9974	100.001	200.001
14.1775	99.9974	100.001	200.001
14.18	99.9974	100.001	200.001
14.1825	99.9974	100.001	200.001
14.185	99.9974	100.001	200.001
14.1875	99.9974	100.001	200.001
14.19	99.9974	100.001	200.001
14.1925	99.9974	100.001	200.001
14.195	99.9974	100.001	200.001
14.1975	99.9974	100.001	200.001
14.2	99.9974	100.001	200.001
14.2025	99.9974	100.001	200.001
14.205	99.9974	100.001	200.001
14.2075	99.9974	100.001	200.001
14.21	99.9974	100.001	200.001
14.2125	99.9974	100.001	200.001
14.215	99.9974	100.001	200.001
14.2175	99.9974	100.001	200.001
14.22	99.9974	100.001	200.001
14.2225	99.9975	100.001	200.001
14.225	99.9975	100.001	200.001
14.2275	99.9975	100.001	200.001
14.23	99.9975	100.001	200.001
14.2325	99.9975	100.001	200.001
14.235	99.9975	100.001	200.001
14.2375	99.9975	100.001	200.001
14.24	99.9975	100.001	200.001
14.2425	99.9975	100.001	200.001
14.245	99.9975	100.001	200.001
14.2475	99.9975	100.001	200.001
14.25	99.9975	100.001	200.001
14.2525	99.9975	100.001	200.001
14.255	99.9975	100.001	200.001
14.2575	99.9975	100.001	200.001
14.26	99.9975	100.001	200.001
14.2625	99.9975	100.001	200.001
14.265	99.9975	100.001	200.001
14.2675	99.9975	100.001	200.001
14.27	99.9975	100.001	200.001
14.2725	99.9975	100.001	200.001
14.275	99.9975	100.001	200.001
14.2775	99.9976	100.001	200.001
14.28	99.9976	100.001	200.001
14.2825	99.9976	100.001	200.001
14.285	99.9976	100.001	200.001
14.2875	99.9976	100.001	200.001
14.29	99.9976	100.001	200.001
14.2925	99.9976	100.001	200.001
14.295	99.9976	100.001	200.001
14.2975	99.9976	100.001	200.001
14.3	99.9976	100.001	200.001
14.3025	99.9976	100.001	200.001
14.305	99.9976	100.001	200.001
14.3075	99.9976	100.001	200.001
14.31	99.9976	100.001	200.001
14.3125	99.9976	100.001	200.001
14.315	99.9976	100.001	200.001
14.3175	99.9976	100.001	200.001
14.32	99.9976	100.001	200.001
14.3225	99.9976	100.001	200.001
14.325	99.9976	100.001	200.001
14.3275	99.9976	100.001	200.001
14.33	99.9977	100.001	200.001
14.3325	99.9977	100.001	200.001
14.335	99.9977	100.001	200.001
14.3375	99.9977	100.001	200.001
14.34	99.9977	100.001	200.001
14.3425	99.9977	100.001	200.001
14.345	99.9977	100.001	200.001
14.3475	99.9977	100.001	200.001
14.35	99.9977	100.001	200.001
14.3525	99.9977	100.001	200.001
14.355	99.9977	100.001	200.001
14.3575	99.9977	100.001	200.001
14.36	99.9977	100.001	200.001
14.3625	99.9977	100.001	200.001
14.365	99.9977	100.001	200.001
14.3675	99.9977	100.001	200.001
14.37	99.9977	100.001	200.001
14.3725	99.9977	100.001	200.001
14.375	99.9977	100.001	200.001
14.3775	99.9977	100.001	200.001
14.38	99.9977	100.001	200.001
14.3825	99.9978	100.001	200.001
14.385	99.9978	100.001	200.001
14.3875	99.9978	100.001	200.001
14.39	99.9978	100.001	200.001
14.3925	99.9978	100.001	200.001
14.395	99.9978	100.001	200.001
14.3975	99.9978	100.001	200.001
14.4	99.9978	100.001	200.001
14.4025	99.9978	100.001	200.001
14.405	99.9978	100.001	200.001
14.4075	99.9978	100.001	200.001
14.41	99.9978	100.001	200.001
14.4125	99.9978	100.001	200.001
14.415	99.9978	100.001	200.001
14.4175	99.9978	100.001	200.001
14.42	99.9978	100.001	200.001
14.4225	99.9978	100.001	200.001
14.425	99.9978	100.001	200.001
14.4275	99.9978	100.001	200.001
14.43	99.9978	100.001	200.001
14.4325	99.9979	100.001	200.001
14.435	99.9979	100.001	200.001
14.4375	99.9979	100.001	200.001
14.44	99.9979	100.001	200.001
14.4425	99.9979	100.001	200.001
14.445	99.9979	100.001	200.001
14.4475	99.9979	100.001	200.001
14.45	99.9979	100.001	200.001
14.4525	99.9979	100.001	200.001
14.455	99.9979	100.001	200.001
14.4575	99.9979	100.001	200.001
14.46	99.9979	100.001	200.001
14.4625	99.9979	100.001	200.001
14.465	99.9979	100.001	200.001
14.4675	99.9979	100.001	200.001
14.47	99.9979	100.001	200.001
14.4725	99.9979	100.001	200.001
14.475	99.9979	100.001	200.001
14.4775	99.9979	100.001	200.001
14.48	99.9979	100.001	200.001
14.4825	99.9979	100.001	200.001
14.485	99.998	100.001	200.001
14.4875	99.998	100.001	200.001
14.49	99.998	100.001	200.001
14.4925	99.998	100.001	200.001
14.495	99.998	100.001	200.001
14.4975	99.998	100.001	200.001
14.5	99.998	100.001	200.001
14.5025	99.998	100.001	200.001
14.505	99.998	100.001	200.001
14.5075	99.998	100.001	200.001
14.51	99.998	100.001	200.001
14.5125	99.998	100.001	200.001
14.515	99.998	100.001	200.001
14.5175	99.998	100.001	200.001
14.52	99.998	100.001	200.001
14.5225	99.998	100.001	200.001
14.525	99.998	100.001	200.001
14.5275	99.998	100.001	200.001
14.53	99.998	100.001	200.001
14.5325	99.998	100.001	200.001
14.535	99.9981	100.001	200.001
14.5375	99.9981	100.001	200.001
14.54	99.9981	100.001	200.001
14.5425	99.9981	100.001	200.001
14.545	99.9981	100.001	200.001
14.5475	99.9981	100.001	200.001
14.55	99.9981	100.001	200.001
14.5525	99.9981	100.001	200.001
14.555	99.9981	100.001	200.001
14.5575	99.9981	100.001	200.001
14.56	99.9981	100.001	200.001
14.5625	99.9981	100.001	200.001
14.565	99.9981	100.001	200.001
14.5675	99.9981	100.001	200.001
14.57	99.9981	100.001	200.001
14.5725	99.9981	100.001	200.001
14.575	99.9981	100.001	200.001
14.5775	99.9981	100.001	200.001
14.58	99.9981	100.001	200.001
14.5825	99.9981	100.001	200.001
14.585	99.9982	100.001	200.001
14.5875	99.9982	100.001	200.001
14.59	99.9982	100.001	200.001
14.5925	99.9982	100.001	200.001
14.595	99.9982	100.001	200.001
14.5975	99.9982	100.001	200.001
14.6	99.9982	100.001	200.001
14.6025	99.9982	100.001	200.001
14.605	99.9982	100.001	200.001
14.6075	99.9982	100	200.001
14.61	99.9982	100	200.001
14.6125	99.9982	100	200.001
14.615	99.9982	100	200.001
14.6175	99.9982	100	200.001
14.62	99.9982	100	200.001
14.6225	99.9982	100	200.001
14.625	99.9982	100	200.001
14.6275	99.9982	100	200.001
14.63	99.9982	100	200.001
14.6325	99.9982	100	200.001
14.635	99.9982	100	200.001
14.6375	99.9983	100	200.001
14.64	99.9983	100	200.001
14.6425	99.9983	100	200.001
14.645	99.9983	100	200.001
14.6475	99.9983	100	200.001
14.65	99.9983	100	200.001
14.6525	99.9983	100	200.001
14.655	99.9983	100	200.001
14.6575	99.9983	100	200.001
14.66	99.9983	100	200.001
14.6625	99.9983	100	200.001
14.665	99.9983	100	200.001
14.6675	99.9983	100	200.001
14.67	99.9983	100	200.001
14.6725	99.9983	100	200.001
14.675	99.9983	100	200.001
14.6775	99.9983	100	200.001
14.68	99.9983	100	200.001
14.6825	99.9983	100	200.001
14.685	99.9983	100	200.001
14.6875	99.9984	100	200.001
14.69	99.9984	100	200.001
14.6925	99.9984	100	200.001
14.695	99.9984	100	200.001
14.6975	99.9984	100	200.001
14.7	99.9984	100	200.001
14.7025	99.9984	100	200.001
14.705	99.9984	100	200.001
14.7075	99.9984	100	200.001
14.71	99.9984	100	200.001
14.7125	99.9984	100	200.001
14.715	99.9984	100	200.001
14.7175	99.9984	100	200.001
14.72	99.9984	100	200.001
14.7225	99.9984	100	200.001
14.725	99.9984	100	200.001
14.7275	99.9984	100	200.001
14.73	99.9984	100	200.001
14.7325	99.9984	100	200.001
14.735	99.9984	100	200.001
14.7375	99.9984	100	200.001
14.74	99.9985	100	200.001
14.7425	99.9985	100	200.001
14.745	99.9985	100	200.001
14.7475	99.9985	100	200.001
14.75	99.9985	100	200.001
14.7525	99.9985	100	200.001
14.755	99.9985	100	200.001
14.7575	99.9985	100	200.001
14.76	99.9985	100	200.001
14.7625	99.9985	100	200.001
14.765	99.9985	100	200.001
14.7675	99.9985	100	200.001
14.77	99.9985	100	200.001
14.7725	99.9985	100	200.001
14.775	99.9985	100	200.001
14.7775	99.9985	100	200.001
14.78	99.9985	100	200.001
14.7825	99.9985	100	200.001
14.785	99.9985	100	200.001
14.7875	99.9985	100	200.001
14.79	99.9985	100	200.001
14.7925	99.9986	100	200.001
14.795	99.9986	100	200.001
14.7975	99.9986	100	200.001
14.8	99.9986	100	200.001
14.8025	99.9986	100	200.001
14.805	99.9986	100	200.001
14.8075	99.9986	100	200.001
14.81	99.9986	100	200.001
14.8125	99.9986	100	200.001
14.815	99.9986	100	200.001
14.8175	99.9986	100	200.001
14.82	99.9986	100	200.001
14.8225	99.9986	100	200.001
14.825	99.9986	100	200.001
14.8275	99.9986	100	200.001
14.83	99.9986	100	200.001
14.8325	99.9986	100	200.001
14.835	99.9986	100	200.001
14.8375	99.9986	100	200.001
14.84	99.9986	100	200.001
14.8425	99.9986	100	200.001
14.845	99.9986	100	200.001
14.8475	99.9987	100	200.001
14.85	99.9987	100	200.001
14.8525	99.9987	100	200.001
14.855	99.9987	100	200.001
14.8575	99.9987	100	200.001
14.86	99.9987	100	200.001
14.8625	99.9987	100	200.001
14.865	99.9987	100	200.001
14.8675	99.9987	100	200.001
14.87	99.9987	100	200.001
14.8725	99.9987	100	200.001
14.875	99.9987	100	200.001
14.8775	99.9987	100	200.001
14.88	99.9987	100	200.001
14.8825	99.9987	100	200.001
14.885	99.9987	100	200.001
14.8875	99.9987	100	200.001
14.89	99.9987	100	200.001
14.8925	99.9987	100	200.001
14.895	99.9987	100	200.001
14.8975	99.9987	100	200.001
14.9	99.9987	100	200.001
14.9025	99.9988	100	200.001
14.905	99.9988	100	200.001
14.9075	99.9988	100	200.001
14.91	99.9988	100	200.001
14.9125	99.9988	100	200.001
14.915	99.9988	100	200.001
14.9175	99.9988	100	200.001
14.92	99.9988	100	200.001
14.9225	99.9988	100	200.001
14.925	99.9988	100	200.001
14.9275	99.9988	100	200.001
14.93	99.9988	100	200.001
14.9325	99.9988	100	200.001
14.935	99.9988	100	200.001
14.9375	99.9988	100	200.001
14.94	99.9988	100	200.001
14.9425	99.9988	100	200.001
14.945	99.9988	100	200.001
14.9475	99.9988	100	200.001
14.95	99.9988	100	200.001
14.9525	99.9988	100	200.001
14.955	99.9988	100	200.001
14.9575	99.9989	100	200.001
14.96	99.9989	100	200.001
14.9625	99.9989	100	200.001
14.965	99.9989	100	200.001
14.9675	99.9989	100	200.001
14.97	99.9989	100	200.001
14.9725	99.9989	100	200.001
14.975	99.9989	100	200.001
14.9775	99.9989	100	200.001
14.98	99.9989	100	200.001
14.9825	99.9989	100	200.001
14.985	99.9989	100	200.001
14.9875	99.9989	100	200.001
14.99	99.9989	99.9999	200.001
14.9925	99.9989	99.9999	200.001
14.995	99.9989	99.9999	200.001
14.9975	99.9989	99.9999	200.001
15	99.9989	99.9999	200.001
